Terminal: BA2      500  MUTUM
Tensão base: 500 kV
SOC inicial: 1643124120
SOC final: 1643124179
Taxa: 1 fasores/s
Total de frames faltantes: - 

Tempo_(SOC)           VB_mod_(V)     VB_ang_(graus)     Frequência        Delta_Freq     Faltante
1643124120.0000    306244.300000       163.825300        59.974450        -0.021973
1643124121.0000    306234.600000       154.788000        59.973620        -0.028839
1643124122.0000    306152.200000       145.258300        59.973750         0.016251
1643124123.0000    305831.700000       135.145400        59.971230        -0.027695
1643124124.0000    305906.600000       124.877800        59.971110         0.008469
1643124125.0000    305625.500000       114.240500        59.968420        -0.066376
1643124126.0000    305930.000000       103.141800        59.968770         0.036163
1643124127.0000    305921.500000        91.532780        59.967880         0.024033
1643124128.0000    305997.300000        80.246440        59.970420         0.040970
1643124129.0000    306048.100000        68.906730        59.969410         0.015335
1643124130.0000    306066.400000        57.548220        59.968490         0.042114
1643124131.0000    306017.000000        46.059400        59.966510         0.011215
1643124132.0000    305744.300000        33.908300        59.964300        -0.025635
1643124133.0000    306161.700000        20.825530        59.963250         0.026779
1643124134.0000    306124.100000         7.206372        59.961910        -0.007782
1643124135.0000    305983.800000        -7.035037        59.959190        -0.016251
1643124136.0000    306241.300000       -21.503180        59.960640        -0.010300
1643124137.0000    306066.300000       -35.479630        59.962890         0.048752
1643124138.0000    306099.900000       -48.836180        59.963190         0.022888
1643124139.0000    306015.400000       -61.631340        59.966550         0.051041
1643124140.0000    305873.300000       -74.285880        59.964460         0.011673
1643124141.0000    305844.500000       -86.302680        59.969870         0.197525
1643124142.0000    305820.300000       -98.038760        59.965350        -0.084686
1643124143.0000    305719.900000      -109.195000        59.969720        -0.071869
1643124144.0000    305871.000000      -119.621100        59.970840        -0.014648          *
1643124145.0000    305941.400000      -129.775000        59.972220        -0.086746
1643124146.0000    305854.400000      -139.458700        59.974550         0.021515
1643124147.0000    305742.100000      -148.944600        59.973460        -0.011444
1643124148.0000    305842.600000      -158.430000        59.975390         0.057449
1643124149.0000    305964.600000      -167.402900        59.976540         0.020370
1643124150.0000    306123.800000      -175.883200        59.979440         0.044174
1643124151.0000    306014.900000       176.485500        59.980580         0.023575
1643124152.0000    305862.700000       169.516800        59.981740         0.008240
1643124153.0000    305880.700000       163.056900        59.982560         0.028381
1643124154.0000    306189.400000       157.189300        59.985270         0.008240
1643124155.0000    306064.200000       152.171600        59.986600         0.043030
1643124156.0000    306059.000000       147.786300        59.989040         0.005493
1643124157.0000    306072.000000       143.971100        59.988640         0.011215
1643124158.0000    306546.000000       140.739500        59.992500        -0.004807
1643124159.0000    306434.700000       138.197300        59.993930         0.012131
1643124160.0000    306316.800000       136.487600        59.995660        -0.008240
1643124161.0000    306526.800000       135.547400        59.998360         0.008698
1643124162.0000    306513.800000       135.063500        59.998880        -0.040054
1643124163.0000    306441.600000       135.113000        59.999330        -0.010300
1643124164.0000    306494.500000       135.068700        59.999430        -0.012589
1643124165.0000    306495.600000       134.970200        59.999630         0.043945
1643124166.0000    306424.200000       134.701000        59.997940         0.014877
1643124167.0000    306552.100000       133.881100        59.998540         0.026321
1643124168.0000    306497.800000       132.445700        59.995240        -0.033646
1643124169.0000    306513.400000       130.557500        59.994260        -0.007553
1643124170.0000    306523.000000       127.970700        59.991820         0.031586
1643124171.0000    306455.800000       124.906100        59.988120        -0.111237
1643124172.0000    306403.800000       120.976300        59.987710        -0.043716
1643124173.0000    306427.300000       116.229200        59.985650         0.017395
1643124174.0000    306399.600000       110.553900        59.981090        -0.070724
1643124175.0000    306448.600000       103.833900        59.981040        -0.027695
1643124176.0000    306632.400000        96.508380        59.979850         0.044174
1643124177.0000    306537.500000        88.595120        59.978920         0.024261
1643124178.0000    306678.700000        80.696080        59.977540        -0.009613
1643124179.0000    306565.300000        71.939170        59.974380         0.021286
