Terminal: BA2      440  ALTA PAULISTA
Tensão base: 440 kV
SOC inicial: 1643124120
SOC final: 1643124179
Taxa: 1 fasores/s
Total de frames faltantes: - 

Tempo_(SOC)           VB_mod_(V)     VB_ang_(graus)     Frequência        Delta_Freq     Faltante
1643124120.0000    259041.200000       150.152900        59.974820        -0.001187
1643124121.0000    259044.100000       141.053000        59.974660        -0.037139
1643124122.0000    258978.000000       131.611800        59.973150        -0.025376
1643124123.0000    259080.000000       121.602000        59.972740        -0.011393
1643124124.0000    259072.700000       111.416100        59.971820         0.016231
1643124125.0000    259016.400000       100.694100        59.969830         0.003733
1643124126.0000    259026.900000        89.495250        59.968630         0.003283
1643124127.0000    259042.400000        77.893250        59.968140        -0.007121
1643124128.0000    259048.200000        66.671550        59.969170        -0.072524
1643124129.0000    259088.900000        55.190360        59.969120         0.052503
1643124130.0000    259139.700000        43.812660        59.970250        -0.037199
1643124131.0000    258965.500000        32.239320        59.965770        -0.075257
1643124132.0000    258997.900000        19.933600        59.965330         0.006360
1643124133.0000    259029.300000         6.987709        59.963690         0.014466
1643124134.0000    258968.900000        -6.544322        59.961120         0.023181
1643124135.0000    259015.700000       -20.850770        59.960110         0.018196
1643124136.0000    259024.800000       -35.316840        59.960950        -0.053402
1643124137.0000    259055.800000       -49.381540        59.962200         0.001610
1643124138.0000    259108.700000       -62.795700        59.964150        -0.019833
1643124139.0000    259088.800000       -75.549210        59.965660         0.024341
1643124140.0000    259070.800000       -88.139630        59.966500        -0.004789
1643124141.0000    259042.400000      -100.157100        59.967480         0.050117
1643124142.0000    259051.800000      -111.911700        59.968440         0.014041
1643124143.0000    259089.900000      -123.079600        59.970340        -0.003006
1643124144.0000    259052.600000      -133.579800        59.971870         0.043965
1643124145.0000    259010.100000      -143.682200        59.972990         0.038377
1643124146.0000    258957.900000      -153.357000        59.973770         0.094419
1643124147.0000    259043.000000      -162.916000        59.973930        -0.009801
1643124148.0000    258994.200000      -172.349700        59.975420        -0.011035
1643124149.0000    259015.900000       178.617800        59.975690         0.008669
1643124150.0000    259081.600000       170.112500        59.977860         0.017450
1643124151.0000    259100.900000       162.601600        59.980460         0.017282
1643124152.0000    259083.700000       155.607300        59.982010        -0.005848
1643124153.0000    259060.200000       149.205900        59.982870         0.004188
1643124154.0000    259063.000000       143.286700        59.984810        -0.001915
1643124155.0000    259076.900000       138.227200        59.987370        -0.006757
1643124156.0000    259095.100000       134.013600        59.989220         0.007811
1643124157.0000    259074.100000       130.115100        59.990220         0.016085
1643124158.0000    259083.400000       126.672400        59.992520        -0.026639
1643124159.0000    259106.300000       124.305000        59.994830         0.017789
1643124160.0000    259104.400000       122.511500        59.996650         0.031993
1643124161.0000    259043.200000       121.625000        59.998260         0.000086
1643124162.0000    259045.300000       121.065500        59.999280        -0.022633
1643124163.0000    258982.200000       121.000700        60.000480        -0.005835
1643124164.0000    259031.000000       120.957300        60.000580         0.010622
1643124165.0000    259042.300000       120.957600        60.000130        -0.002326
1643124166.0000    258993.800000       120.586200        59.998350         0.018109
1643124167.0000    258988.900000       119.605000        59.997670        -0.009277
1643124168.0000    259004.000000       118.410700        59.996300        -0.018035
1643124169.0000    258973.300000       116.503700        59.993840         0.046299
1643124170.0000    258959.200000       113.934100        59.992070         0.008463
1643124171.0000    258970.600000       110.734600        59.990780        -0.023523
1643124172.0000    258983.400000       106.813100        59.988900         0.047223
1643124173.0000    258944.600000       102.065200        59.985490        -0.001100
1643124174.0000    258930.300000        96.167040        59.982070         0.027620
1643124175.0000    258970.500000        89.548730        59.981440        -0.047570
1643124176.0000    258927.900000        82.028270        59.978910        -0.062869
1643124177.0000    258993.100000        74.255150        59.978520         0.013158
1643124178.0000    258993.900000        66.271880        59.978260         0.028644
1643124179.0000    259011.300000        57.509420        59.975000         0.030645
