Terminal: BAB1     525  BATEIAS
Tensão base: 500 kV
SOC inicial: 1643124120
SOC final: 1643124179
Taxa: 1 fasores/s
Total de frames faltantes: - 

Tempo_(SOC)           VB_mod_(V)     VB_ang_(graus)     Frequência        Delta_Freq     Faltante
1643124120.0000    311178.900000       119.910900        59.973030         0.098284
1643124121.0000    311409.600000       110.863900        59.975250         0.077565
1643124122.0000    311281.600000       101.398300        59.973780        -0.177461
1643124123.0000    311482.400000        91.472850        59.974210         0.180648
1643124124.0000    311424.300000        81.285220        59.971480        -0.105529
1643124125.0000    311195.600000        70.506000        59.971800         0.108407
1643124126.0000    311312.700000        59.285730        59.968160         0.026359
1643124127.0000    311061.600000        47.724370        59.962850        -0.271529
1643124128.0000    311172.700000        36.509730        59.965250        -0.675239
1643124129.0000    311262.600000        24.966380        59.969060        -0.093620
1643124130.0000    311587.000000        13.729400        59.974040         0.161010
1643124131.0000    311089.400000         2.037757        59.964120        -0.264923
1643124132.0000    311066.700000       -10.289020        59.963780         0.500662
1643124133.0000    311199.800000       -23.177350        59.961270        -0.597705
1643124134.0000    311043.400000       -36.751450        59.955520         0.175239
1643124135.0000    311357.600000       -51.001810        59.956170        -0.099771
1643124136.0000    311320.800000       -65.438480        59.960800        -0.059461
1643124137.0000    310969.900000       -79.547430        59.953330        -0.401060
1643124138.0000    311398.500000       -92.926950        59.967820         0.166318
1643124139.0000    311101.500000      -105.751800        59.967660         0.138309
1643124140.0000    311339.800000      -118.293300        59.968340         0.166210
1643124141.0000    310819.600000      -130.378300        59.967460         0.257324
1643124142.0000    311077.500000      -142.133400        59.968280         0.016587
1643124143.0000    311355.800000      -153.259600        59.973060         0.036495
1643124144.0000    311386.900000      -163.728800        59.971170         0.079709
1643124145.0000    311034.300000      -173.883800        59.971820        -0.012649
1643124146.0000    310932.400000       176.432000        59.974040         0.250672
1643124147.0000    311189.800000       166.871500        59.972240        -0.106789
1643124148.0000    310975.100000       157.467200        59.974990         0.130766
1643124149.0000    311037.800000       148.421900        59.976250         0.158530
1643124150.0000    311079.500000       139.891900        59.980130         0.264060
1643124151.0000    311212.300000       132.394700        59.981850         0.012881
1643124152.0000    311404.000000       125.450500        59.983220        -0.127741
1643124153.0000    311349.300000       118.998800        59.987050         0.149813
1643124154.0000    311033.100000       113.108900        59.979240        -0.308209
1643124155.0000    311293.800000       108.050900        59.987170         0.185222
1643124156.0000    311443.100000       103.934900        59.988610         0.054924
1643124157.0000    311419.800000        99.988070        59.991040         0.035736
1643124158.0000    311273.100000        96.555340        59.992680        -0.021657
1643124159.0000    310849.700000        94.163080        59.994530        -0.210946
1643124160.0000    311288.100000        92.350510        59.998180         0.257801
1643124161.0000    311098.900000        91.428540        59.996450        -0.435483
1643124162.0000    310940.900000        90.854700        59.997910        -0.189267
1643124163.0000    310584.300000        90.725030        60.000120        -0.096942
1643124164.0000    311002.000000        90.758090        60.001050         0.418344
1643124165.0000    311043.500000        90.789830        60.000810         0.105282
1643124166.0000    310731.200000        90.361820        59.994870        -0.163223
1643124167.0000    310929.100000        89.364980        59.997830         0.180588
1643124168.0000    311155.000000        88.235920        59.994180        -0.106630
1643124169.0000    310799.700000        86.276320        59.992000        -0.013797
1643124170.0000    311005.200000        83.751110        59.991550         0.397308
1643124171.0000    310962.700000        80.497050        59.988520        -0.031460
1643124172.0000    310862.800000        76.550070        59.989860         0.365902
1643124173.0000    310896.400000        71.794460        59.984320         0.049157
1643124174.0000    310707.600000        65.855040        59.979980        -0.134403
1643124175.0000    310874.700000        59.290210        59.983520         0.195911
1643124176.0000    310722.200000        51.808990        59.980110        -0.020405
1643124177.0000    310954.000000        44.038020        59.977060         0.046079
1643124178.0000    310708.300000        36.003060        59.977330         0.300963
1643124179.0000    310837.600000        27.237600        59.975320        -0.168604
