Terminal: LT 440  BAGUACU - ILHA SOLTEIRA C1
Tensão base: 440 kV
SOC inicial: 1643124120
SOC final: 1643124179
Taxa: 1 fasores/s
Total de frames faltantes: - 

Tempo_(SOC)           VA_mod_(V)     VA_ang_(graus)     VB_mod_(V)     VB_ang_(graus)     VC_mod_(V)     VC_ang_(graus)     IA_mod_(A)     IA_ang_(graus)     IB_mod_(A)     IB_ang_(graus)     IC_mod_(A)     IC_ang_(graus)     Frequência        Delta_Freq     Faltante
1643124120.0000    264466.600000       -90.763400    263318.000000       148.969800    263277.300000        29.005390       681.261300        94.503840       668.765700       -25.188520       658.981000      -144.823600        59.974280         0.001034
1643124121.0000    264403.500000       -99.854380    263329.500000       139.883600    263269.900000        19.902910       681.156400        85.382710       668.530500       -34.260520       658.835000      -153.917800        59.974790        -0.040011
1643124122.0000    264454.200000      -109.310400    263272.300000       130.428900    263269.600000        10.468150       681.339800        75.958100       668.900900       -43.746100       658.874500      -163.369800        59.973180        -0.036651
1643124123.0000    264497.300000      -119.309700    263421.200000       120.413500    263303.900000         0.440322       680.351300        65.987910       668.231900       -53.649740       658.326500      -173.328100        59.972760        -0.011808
1643124124.0000    264522.300000      -129.511200    263408.700000       110.221200    263347.400000        -9.749338       680.484500        55.791410       668.219900       -63.841960       658.156400       176.465800        59.971820         0.025018
1643124125.0000    264480.500000      -140.214400    263342.400000        99.506030    263247.400000       -20.453490       680.097400        45.060940       668.255100       -74.612360       658.179000       165.738200        59.970060        -0.016310
1643124126.0000    264421.600000      -151.412600    263343.000000        88.309460    263220.500000       -31.661950       680.648900        33.857660       669.048200       -85.781680       659.071400       154.502700        59.968320         0.010842
1643124127.0000    264518.700000      -163.006200    263369.400000        76.718330    263295.000000       -43.240580       679.824200        22.327810       667.845100       -97.386890       657.668000       142.951500        59.967980         0.029794
1643124128.0000    264505.800000      -174.262500    263325.700000        65.484250    263354.600000       -54.480000       679.553200        11.035310       667.408000      -108.654000       656.998700       131.685500        59.969060        -0.005729
1643124129.0000    264548.700000       174.292100    263425.000000        54.012740    263321.700000       -65.949550       680.025600        -0.377670       668.433800      -120.048600       657.661400       120.274700        59.968700         0.082462
1643124130.0000    264527.100000       162.898400    263473.600000        42.633630    263395.100000       -77.348720       679.391400       -11.795200       667.126000      -131.441500       657.169300       108.876200        59.969580        -0.046099
1643124131.0000    264269.600000       151.332800    263240.400000        31.059570    263106.300000       -88.923360       680.273600       -23.475660       668.267900      -143.066900       658.481900        97.218630        59.964830        -0.069233
1643124132.0000    264337.900000       139.022900    263291.800000        18.747180    263156.100000      -101.231300       680.743200       -35.762370       668.905900      -155.406500       658.568300        84.870270        59.964700         0.023850
1643124133.0000    264493.900000       126.092700    263382.900000         5.808398    263250.100000      -114.153500       679.690300       -48.639790       668.290200      -168.304400       657.510900        71.971240        59.963940        -0.020191
1643124134.0000    264375.400000       112.548100    263289.800000        -7.739253    263130.600000      -127.705100       680.793400       -62.174130       669.299100       178.165200       658.611600        58.433250        59.961280         0.018299
1643124135.0000    264523.200000        98.234600    263354.900000       -22.047170    263260.900000      -141.999200       680.036200       -76.461210       668.375400       163.824000       657.618300        44.141890        59.959740         0.020078
1643124136.0000    264418.400000        83.780740    263298.700000       -36.496860    263197.200000      -156.460700       680.248200       -90.966640       668.169600       149.353200       658.356900        29.682410        59.959980        -0.033718
1643124137.0000    264451.300000        69.721570    263323.800000       -50.553580    263234.200000      -170.516700       680.677200      -105.038000       668.969400       135.287700       658.370300        15.626420        59.961940        -0.010072
1643124138.0000    264473.800000        56.307510    263378.900000       -63.966650    263278.000000       176.063200       681.026600      -118.454400       669.279000       121.899800       659.556600         2.216542        59.963570         0.003128
1643124139.0000    264556.000000        43.546830    263389.800000       -76.730130    263310.200000       163.314500       681.317200      -131.151700       669.496200       109.144000       658.805200       -10.512700        59.966070         0.033988
1643124140.0000    264478.400000        30.961950    263350.100000       -89.305950    263288.500000       150.727300       681.044600      -143.804500       668.882900        96.539790       658.882300       -23.108390        59.966680         0.026251
1643124141.0000    264515.800000        18.960130    263311.200000      -101.329700    263200.900000       138.728600       681.053200      -155.748000       669.480800        84.563700       658.689800       -35.133600        59.968170        -0.001320
1643124142.0000    264481.700000         7.192611    263318.100000      -113.082000    263247.400000       126.960500       682.499000      -167.505400       670.470900        72.791780       659.768900       -46.868240        59.968080         0.027561
1643124143.0000    264516.400000        -3.976099    263375.500000      -124.252400    263288.700000       115.786900       681.319000      -178.673800       669.237200        61.602150       658.998500       -58.069880        59.969250        -0.017130
1643124144.0000    264550.100000       -14.481160    263319.500000      -134.764600    263247.700000       105.295200       681.601500       170.866700       670.144500        51.125270       659.138600       -68.549100        59.972350         0.040381
1643124145.0000    264451.000000       -24.587990    263257.000000      -144.859300    263213.600000        95.187390       682.418400       160.682100       670.857600        40.973030       660.345500       -78.710820        59.972970         0.041201
1643124146.0000    264443.800000       -34.284050    263165.300000      -154.536200    263237.300000        85.517720       682.425300       151.013000       669.649300        31.236390       658.989700       -88.350970        59.974680         0.106758
1643124147.0000    264490.400000       -43.812170    263325.700000      -164.093800    263230.300000        75.952800       681.752900       141.510100       669.912900        21.778330       659.417800       -97.885490        59.974150        -0.038189
1643124148.0000    264448.000000       -53.252800    263224.000000      -173.530000    263174.200000        66.525890       681.683000       132.001300       669.445300        12.252350       658.752400      -107.380700        59.975040        -0.066254
1643124149.0000    264448.400000       -62.277790    263276.300000       177.443500    263195.800000        57.489930       681.260300       122.977100       669.717600         3.256810       659.005200      -116.384300        59.976180        -0.048746
1643124150.0000    264571.100000       -70.782520    263369.200000       168.937800    263300.600000        48.990490       681.217100       114.540300       669.351400        -5.159026       658.786700      -124.847600        59.978130         0.012662
1643124151.0000    264572.700000       -78.292820    263400.600000       161.426700    263313.100000        41.473630       681.379500       107.028400       669.538500       -12.662150       658.988300      -132.359200        59.980870         0.000198
1643124152.0000    264507.400000       -85.284610    263371.000000       154.437400    263275.300000        34.476780       681.494800       100.020300       669.603400       -19.663910       659.112500      -139.330000        59.981360        -0.015025
1643124153.0000    264388.500000       -91.683620    263352.000000       148.039300    263206.200000        28.059040       681.581800        93.516800       669.973900       -26.061280       660.348600      -145.794600        59.982500        -0.009822
1643124154.0000    264499.800000       -97.607540    263345.100000       142.106900    263227.900000        22.153750       680.572300        87.656340       668.685700       -32.029620       658.369400      -151.693300        59.984870        -0.063532
1643124155.0000    264529.400000      -102.676100    263365.700000       137.052200    263308.600000        17.094310       680.336700        82.581590       668.388800       -37.094290       658.318200      -156.730500        59.987400         0.024549
1643124156.0000    264487.700000      -106.900400    263381.500000       132.827300    263293.200000        12.858340       679.715900        78.402160       667.807700       -41.284520       657.669000      -160.965300        59.989200         0.020976
1643124157.0000    264526.300000      -110.793800    263368.800000       128.941100    263335.800000         8.978144       681.071800        74.502040       668.836500       -45.199640       658.313800      -164.867700        59.990450         0.042830
1643124158.0000    264512.200000      -114.215200    263355.400000       125.511100    263288.400000         5.552391       679.920600        71.079700       668.128500       -48.617630       657.718700      -168.314500        59.993650        -0.077346
1643124159.0000    264497.400000      -116.589000    263417.600000       123.131000    263287.800000         3.160472       680.558200        68.688300       669.270400       -50.928700       658.463600      -170.627900        59.994340        -0.004974
1643124160.0000    264530.100000      -118.386100    263405.400000       121.336300    263305.300000         1.373527       680.810400        66.880320       669.005300       -52.764570       658.753800      -172.463500        59.996190        -0.002227
1643124161.0000    264436.000000      -119.298100    263298.300000       120.437700    263257.100000         0.469914       681.893200        65.992130       669.682900       -53.692650       659.183700      -173.350600        59.998300         0.020720
1643124162.0000    264379.100000      -119.849100    263309.200000       119.884500    263226.200000        -0.095179       681.033900        65.368580       668.901200       -54.258240       658.793300      -173.919100        59.998330        -0.041257
1643124163.0000    264322.300000      -119.908300    263223.800000       119.817800    263118.500000        -0.152742       682.535000        65.284000       670.473100       -54.320840       660.454600      -174.037500        60.000510         0.001785
1643124164.0000    264454.800000      -119.944800    263294.500000       119.771200    263185.700000        -0.182233       681.759700        65.347720       669.852500       -54.387010       659.226100      -174.054000        60.000430         0.001350
1643124165.0000    264449.800000      -119.944100    263342.000000       119.770900    263205.100000        -0.192046       681.134000        65.371690       669.564100       -54.293620       659.315400      -174.017600        59.999850        -0.027979
1643124166.0000    264405.900000      -120.327100    263301.500000       119.405900    263232.100000        -0.566450       681.197500        64.980730       668.924300       -54.684450       659.374800      -174.374500        59.998490         0.030422
1643124167.0000    264416.100000      -121.296200    263310.300000       118.426700    263201.600000        -1.540430       681.677500        64.014570       669.792800       -55.661930       659.469900      -175.324500        59.998110        -0.012774
1643124168.0000    264469.100000      -122.499300    263373.100000       117.219300    263246.900000        -2.747937       680.765900        62.833980       668.802600       -56.839900       658.779500      -176.537400        59.997150        -0.033079
1643124169.0000    264399.600000      -124.418600    263321.800000       115.309500    263222.900000        -4.665731       681.157300        60.891450       669.129600       -58.729080       659.090900      -178.462100        59.993370        -0.026234
1643124170.0000    264357.400000      -126.995200    263247.800000       112.736400    263178.100000        -7.234238       681.307100        58.278910       668.454200       -61.372750       658.793000       178.939800        59.991390        -0.011267
1643124171.0000    264372.600000      -130.177700    263244.700000       109.543900    263140.200000       -10.418410       681.644700        55.083470       669.806600       -64.590270       659.410500       175.731900        59.990180         0.002850
1643124172.0000    264450.200000      -134.101400    263303.000000       105.614900    263187.600000       -14.341280       681.736500        51.169790       670.062300       -68.515870       659.417500       171.811600        59.989070         0.008720
1643124173.0000    264318.900000      -138.858600    263244.900000       100.875700    263163.000000       -19.103980       682.392000        46.400320       670.060700       -73.248870       660.358600       167.070100        59.985690        -0.023546
1643124174.0000    264364.100000      -144.749300    263226.500000        94.976930    263142.200000       -24.986340       682.830300        40.527330       671.045900       -79.120040       661.092000       161.217400        59.982440        -0.003989
1643124175.0000    264364.600000      -151.368900    263264.800000        88.365030    263193.800000       -31.608930       682.501400        33.904140       669.955800       -85.761360       660.123900       154.579600        59.981100         0.014239
1643124176.0000    264255.000000      -158.876300    263207.500000        80.865960    263142.500000       -39.121240       681.024500        26.319940       668.602700       -93.319500       659.478000       147.017800        59.978820        -0.084271
1643124177.0000    264430.900000      -166.654000    263276.000000        73.078060    263228.300000       -46.884110       681.608000        18.615720       669.513400      -101.073700       659.447600       139.273500        59.979170        -0.050379
1643124178.0000    264441.600000      -174.640000    263278.000000        65.095660    263243.800000       -54.865740       681.986100        10.644530       669.533000      -109.077100       659.138400       131.277100        59.978160         0.046082
1643124179.0000    264372.100000       176.616100    263297.500000        56.343760    263187.100000       -63.631550       683.051200         1.847351       671.059900      -117.793400       661.118700       122.520600        59.975890         0.005525
