Terminal: LT 440  ALTA PAULISTA - TAQUARUCU C1
Tensão base: 440 kV
SOC inicial: 1643124120
SOC final: 1643124179
Taxa: 1 fasores/s
Total de frames faltantes: - 

Tempo_(SOC)           VA_mod_(V)     VA_ang_(graus)     VB_mod_(V)     VB_ang_(graus)     VC_mod_(V)     VC_ang_(graus)     IA_mod_(A)     IA_ang_(graus)     IB_mod_(A)     IB_ang_(graus)     IC_mod_(A)     IC_ang_(graus)     Frequência        Delta_Freq     Faltante
1643124120.0000    258660.700000       -89.776800    259002.200000       150.213400    258632.500000        30.084730       233.371200       -40.957940       239.876700      -163.606200       221.274500        75.816420        59.974330         0.002133
1643124121.0000    258619.200000       -98.880020    259005.000000       141.113100    258626.600000        20.974580       233.648100       -50.115760       240.012000      -172.756000       221.338500        66.755240        59.974710        -0.026940
1643124122.0000    258619.300000      -108.323000    258939.200000       131.671400    258596.800000        11.544670       232.745100       -59.428560       239.013200       177.909300       220.262000        57.259910        59.972940        -0.016426
1643124123.0000    258663.500000      -118.321300    259040.400000       121.662900    258630.900000         1.529863       232.816300       -69.358990       239.057400       167.935100       220.657400        47.499810        59.972670        -0.015078
1643124124.0000    258675.300000      -128.513300    259033.600000       111.475800    258651.700000        -8.656012       232.496200       -79.471240       239.139500       157.744700       220.719300        37.219970        59.971420         0.017260
1643124125.0000    258639.200000      -139.229000    258976.300000       100.753400    258579.500000       -19.370900       233.247300       -90.268410       239.580600       146.915900       221.060200        26.469400        59.969700        -0.006064
1643124126.0000    258614.500000      -150.428000    258987.800000        89.555150    258576.500000       -30.576170       233.613300      -101.588500       239.944800       135.602100       221.388400        15.080420        59.968280         0.004035
1643124127.0000    258676.100000      -162.032600    259003.500000        77.953370    258624.700000       -42.170520       233.205000      -113.057300       239.658300       124.079000       221.091600         3.569783        59.967940         0.014639
1643124128.0000    258691.100000      -173.265400    259007.900000        66.732150    258679.200000       -53.395720       232.773300      -124.310800       239.363200       113.007800       220.840700        -7.604840        59.969080        -0.011497
1643124129.0000    258697.400000       175.268900    259049.400000        55.250880    258643.800000       -64.876000       233.303500      -135.765200       239.417100       101.483300       220.795300       -19.132470        59.968350         0.072050
1643124130.0000    258708.800000       163.882000    259099.500000        43.872750    258708.400000       -76.266050       232.745600      -147.079200       238.985400        90.155990       220.676400       -30.322730        59.969520        -0.022141
1643124131.0000    258524.600000       152.314400    258925.400000        32.298700    258503.000000       -87.838590       232.798000      -158.712500       239.316900        78.593440       220.818600       -41.947150        59.965480        -0.060335
1643124132.0000    258571.000000       140.011300    258957.700000        19.993520    258533.600000      -100.140100       232.460600      -171.065800       238.986500        66.305590       220.535800       -54.318870        59.964760         0.006489
1643124133.0000    258626.500000       127.068000    258990.700000         7.047259    258567.200000      -113.080000       232.313600       175.983600       238.687300        53.243080       220.209200       -67.226120        59.963420        -0.012101
1643124134.0000    258557.000000       113.537500    258928.500000        -6.485859    258491.900000      -126.613700       232.355500       162.372700       238.889900        39.713180       220.578000       -80.816540        59.961120         0.009451
1643124135.0000    258650.600000        99.227520    258975.800000       -20.791120    258582.300000      -140.912400       232.458000       148.182700       238.678400        25.520470       220.393700       -95.008480        59.959590         0.018335
1643124136.0000    258638.300000        84.760960    258985.500000       -35.257270    258580.300000      -155.382900       233.058900       133.654600       239.733800        10.923690       220.478300      -109.634400        59.960190        -0.033104
1643124137.0000    258670.500000        70.692090    259016.900000       -49.322730    258624.800000      -169.449700       233.048900       119.567700       239.220200        -3.110443       221.008200      -123.732500        59.961980        -0.001533
1643124138.0000    258703.500000        57.280450    259068.600000       -62.735270    258664.800000       177.134500       233.424500       106.151500       239.508100       -16.565870       221.323800      -137.118000        59.963380        -0.002054
1643124139.0000    258724.600000        44.527680    259048.500000       -75.489430    258658.700000       164.388600       232.454500        93.446220       239.285700       -29.318830       220.843000      -149.799300        59.965410         0.031554
1643124140.0000    258686.900000        31.931410    259032.200000       -88.080600    258652.400000       151.791200       233.035200        80.750370       239.754200       -41.914560       221.340000      -162.511200        59.966130         0.023758
1643124141.0000    258704.500000        19.926670    259001.800000      -100.097200    258600.900000       139.789800       233.080800        68.808710       239.793600       -53.978020       221.284400      -174.500100        59.967810         0.008476
1643124142.0000    258680.300000         8.162136    259011.700000      -111.852300    258630.400000       128.023400       233.640000        56.956350       239.858000       -65.709980       221.587200       173.703400        59.967980         0.012835
1643124143.0000    258703.300000        -3.004172    259050.100000      -123.020300    258653.300000       116.853300       232.963400        45.770340       239.767500       -76.855300       221.190000       162.614400        59.969540        -0.012775
1643124144.0000    258721.500000       -13.500220    259012.800000      -133.520000    258629.900000       106.366100       233.362200        35.340900       239.655900       -87.314470       221.096000       152.036900        59.972010         0.026079
1643124145.0000    258656.500000       -23.609660    258971.100000      -143.622500    258604.200000        96.255770       233.713800        25.191040       240.101900       -97.655560       221.887400       141.918400        59.972810         0.030066
1643124146.0000    258648.700000       -33.294530    258918.300000      -153.297400    258611.700000        86.584320       233.423200        15.585470       239.660700      -107.185900       221.255000       132.315000        59.974290         0.068981
1643124147.0000    258677.400000       -42.836480    259004.000000      -162.855900    258605.500000        77.023250       233.469900         5.862701       239.637600      -116.764200       221.284100       122.673900        59.973740        -0.023506
1643124148.0000    258664.500000       -52.272520    258954.100000      -172.290300    258581.700000        67.595120       233.581100        -3.361109       239.800500      -126.233600       221.114400       113.332200        59.974800        -0.050076
1643124149.0000    258653.700000       -61.305990    258976.700000       178.676300    258588.000000        58.555430       233.625700       -12.499830       239.910400      -135.286700       221.641500       104.206200        59.975650        -0.030547
1643124150.0000    258735.700000       -69.809530    259042.100000       170.172300    258659.400000        50.054590       234.009000       -21.168900       240.416000      -143.802600       222.270800        95.574140        59.977630         0.008207
1643124151.0000    258739.800000       -77.320510    259061.400000       162.661800    258672.500000        42.540790       233.556100       -28.616820       239.969900      -151.354700       221.768400        88.082120        59.980230         0.006831
1643124152.0000    258700.800000       -84.316680    259043.900000       155.666000    258646.300000        35.541050       234.110600       -35.613040       240.652300      -158.262600       221.971800        81.153210        59.981240        -0.014058
1643124153.0000    258619.000000       -90.716590    259020.000000       149.265500    258590.100000        29.129960       234.053900       -42.083540       240.622300      -164.754700       221.992800        74.609380        59.982430        -0.005408
1643124154.0000    258699.100000       -96.630540    259022.800000       143.347000    258615.300000        23.227970       233.302400       -47.785460       239.634900      -170.441400       221.351400        69.075000        59.984810        -0.043446
1643124155.0000    258708.800000      -101.698900    259036.400000       138.286800    258657.800000        18.162850       233.439000       -52.964610       239.932300      -175.602100       221.615600        63.884970        59.987170         0.014345
1643124156.0000    258698.200000      -105.911200    259055.100000       134.073000    258656.000000        13.944170       233.049400       -56.888780       239.202200      -179.670100       221.060200        59.771950        59.989130         0.005953
1643124157.0000    258704.800000      -109.815100    259033.700000       130.174700    258670.300000        10.048610       232.896800       -60.959370       239.973800       176.430200       221.223200        55.826960        59.990020         0.029403
1643124158.0000    258716.000000      -113.253500    259043.100000       126.732400    258665.600000         6.608514       233.054800       -64.349510       239.672300       173.018200       221.415900        52.478530        59.993020        -0.043888
1643124159.0000    258696.600000      -115.615700    259067.000000       124.365900    258650.200000         4.235991       233.378400       -66.803220       239.628300       170.461900       221.229900        49.972150        59.994180         0.002342
1643124160.0000    258722.200000      -117.411500    259065.200000       122.570800    258665.200000         2.445792       233.090100       -68.487350       239.540300       168.754100       220.932700        48.334950        59.996130         0.002578
1643124161.0000    258658.300000      -118.305600    259002.800000       121.684600    258633.200000         1.555466       232.941500       -69.412720       239.664400       167.899200       221.235300        47.269940        59.998070         0.010467
1643124162.0000    258626.000000      -118.861200    259005.600000       121.126200    258607.100000         0.991668       233.498800       -70.005840       239.549300       167.301900       221.155000        46.766970        59.998550        -0.032382
1643124163.0000    258586.700000      -118.923700    258942.700000       121.060600    258543.500000         0.932428       233.454200       -70.077000       239.728200       167.082200       221.235900        46.529990        60.000280        -0.000387
1643124164.0000    258665.500000      -118.961500    258991.200000       121.016400    258583.900000         0.897280       233.551500       -70.086800       239.797400       167.183200       221.381800        46.622570        60.000360         0.000765
1643124165.0000    258647.900000      -118.960800    259002.400000       121.017700    258581.700000         0.892542       233.370400       -70.222540       239.718000       167.121700       221.499500        46.490700        59.999860        -0.015674
1643124166.0000    258596.400000      -119.343100    258953.200000       120.645700    258572.400000         0.515032       233.265200       -70.602350       239.753300       166.698400       221.561400        46.143580        59.998250         0.024220
1643124167.0000    258594.300000      -120.318200    258948.600000       119.664500    258544.000000        -0.462995       233.528900       -71.642250       239.991100       165.635300       221.335800        45.021330        59.997650        -0.009664
1643124168.0000    258604.800000      -121.508600    258964.600000       118.471300    258546.000000        -1.656041       232.913400       -72.774440       239.513600       164.528500       220.783700        43.921050        59.996490        -0.016041
1643124169.0000    258560.300000      -123.421400    258933.500000       116.563300    258528.100000        -3.568805       233.268600       -74.802600       239.925600       162.522300       221.214400        41.942860        59.993440        -0.013028
1643124170.0000    258566.000000      -125.993300    258919.600000       113.992800    258529.200000        -6.136174       232.650400       -77.051320       239.222200       160.202200       220.625700        39.723270        59.991770        -0.006637
1643124171.0000    258584.600000      -129.186400    258931.100000       110.794400    258524.600000        -9.330426       232.923100       -80.439550       239.338700       156.867200       220.827300        36.318780        59.990350        -0.009715
1643124172.0000    258612.200000      -133.105500    258943.200000       106.872700    258533.600000       -13.247970       232.672700       -84.346490       239.369800       152.920900       220.578100        32.349920        59.988880         0.004661
1643124173.0000    258526.300000      -137.863500    258905.000000       102.123600    258506.500000       -18.010420       233.100500       -89.205380       239.745400       148.116900       220.986900        27.495880        59.985500        -0.029264
1643124174.0000    258551.300000      -143.756700    258890.500000        96.227750    258501.600000       -23.897650       233.036200       -95.009640       239.683400       142.299600       220.893800        21.642250        59.982280        -0.002691
1643124175.0000    258564.000000      -150.380800    258930.200000        89.607850    258542.700000       -30.524700       233.337800      -101.733600       240.042800       135.512100       221.588600        14.883160        59.980930        -0.007622
1643124176.0000    258502.300000      -157.903900    258887.300000        82.087840    258504.300000       -38.050250       233.238900      -109.241700       240.286400       128.085500       221.302500         7.499391        59.978600        -0.053312
1643124177.0000    258625.100000      -165.670600    258953.100000        74.316970    258580.800000       -45.807980       233.339000      -116.971400       239.941300       120.293900       221.308800        -0.285338        59.978890        -0.034654
1643124178.0000    258632.200000      -173.658400    258953.700000        66.331640    258594.700000       -53.792900       233.195900      -125.042500       239.550400       112.293300       221.136700        -8.264620        59.978000         0.041713
1643124179.0000    258596.500000       177.583000    258971.600000        57.568490    258568.400000       -62.564180       234.138000      -133.775800       240.656500       103.552900       222.014200       -17.020300        59.975300         0.008322
