Terminal: LT 440  BRACELL - BAURU C1
Tensão base: 440 kV
SOC inicial: 1643124120
SOC final: 1643124179
Taxa: 1 fasores/s
Total de frames faltantes: - 

Tempo_(SOC)           VA_mod_(V)     VA_ang_(graus)     VB_mod_(V)     VB_ang_(graus)     VC_mod_(V)     VC_ang_(graus)     IA_mod_(A)     IA_ang_(graus)     IB_mod_(A)     IB_ang_(graus)     IC_mod_(A)     IC_ang_(graus)     Frequência        Delta_Freq     Faltante
1643124120.0000    260874.400000      -101.849100    261411.800000       138.018700    260140.200000        17.970550       785.876200        81.598400       764.690000       -38.570570       745.736700      -161.076900        59.974160         0.009802
1643124121.0000    260791.300000      -110.940600    261422.000000       128.936600    260150.200000         8.866714       786.240500        72.533010       765.470500       -47.625790       745.980300      -170.124600        59.974910        -0.033136
1643124122.0000    260870.900000      -120.392900    261369.500000       119.478600    260129.800000        -0.563979       784.838000        63.083150       763.898900       -57.118170       745.348800      -179.617200        59.972850        -0.058208
1643124123.0000    260942.000000      -130.368100    261595.600000       109.485100    260215.500000       -10.577650       784.204000        53.141200       763.131200       -67.021680       743.769700       170.473300        59.973160        -0.013083
1643124124.0000    260958.800000      -140.573000    261544.700000        99.294810    260251.400000       -20.763980       784.150500        42.870380       762.965600       -77.334900       743.864300       160.234400        59.971790         0.012739
1643124125.0000    260930.500000      -151.270200    261493.800000        88.575990    260128.400000       -31.465500       783.325100        32.238610       762.370100       -87.951190       743.199800       149.541200        59.970150        -0.029446
1643124126.0000    260851.300000      -162.481800    261488.800000        77.372310    260118.000000       -42.689090       782.871300        21.027640       762.239600       -99.154110       742.694600       138.348300        59.968410         0.014222
1643124127.0000    260990.400000      -174.053900    261528.400000        65.800510    260207.100000       -54.241710       781.228600         9.530221       759.830500      -110.651800       741.124300       126.863300        59.967790         0.044863
1643124128.0000    260956.000000       174.691100    261423.500000        54.573800    260253.400000       -65.468090       780.315600        -1.793118       759.150900      -121.965500       740.532800       115.555500        59.969090         0.008048
1643124129.0000    260992.500000       163.248900    261553.700000        43.097510    260197.900000       -76.946980       780.340800       -13.300960       759.078600      -133.502900       739.863000       104.001800        59.969120         0.079835
1643124130.0000    260969.500000       151.862300    261607.800000        31.733090    260303.400000       -88.335190       780.649600       -24.592470       760.256900      -144.820800       740.407700        92.686190        59.969350        -0.066857
1643124131.0000    260622.500000       140.276400    261317.600000        20.137660    259942.100000       -99.937550       779.240200       -36.309250       758.590000      -156.514900       738.763700        80.956890        59.964780        -0.053600
1643124132.0000    260686.200000       127.959100    261376.000000         7.819187    259989.900000      -112.255300       780.829800       -48.660630       759.931900      -168.841400       740.135700        68.656640        59.964580         0.025674
1643124133.0000    260936.200000       115.051500    261513.100000        -5.109805    260102.500000      -125.151500       780.170800       -61.427910       759.209400       178.368300       739.412000        55.839670        59.964030        -0.068960
1643124134.0000    260791.600000       101.492900    261421.500000       -18.670100    259979.600000      -138.720800       780.074000       -75.115840       759.355900       164.677800       739.600800        42.205880        59.961680         0.006248
1643124135.0000    260994.100000        87.191570    261493.100000       -32.970240    260130.300000      -152.997100       781.331200       -89.271120       760.555800       150.552200       741.283100        28.046880        59.959350         0.006457
1643124136.0000    260799.000000        72.727810    261383.000000       -47.420850    260028.100000      -167.470000       781.214700      -103.791400       759.930600       136.022500       740.654100        13.545660        59.959300         0.008632
1643124137.0000    260843.600000        58.660250    261413.600000       -61.487290    260064.100000       178.466700       782.502300      -117.852800       761.616200       121.927000       742.203700        -0.568057        59.961860         0.009123
1643124138.0000    260875.300000        45.235770    261498.100000       -74.907980    260141.100000       165.035200       783.645100      -131.232800       762.374100       108.558900       742.848700       -13.911290        59.963430         0.039814
1643124139.0000    261006.500000        32.483910    261519.700000       -87.669440    260179.400000       152.297100       783.049000      -144.028700       762.024900        95.753310       743.285500       -26.723180        59.966290        -0.011195
1643124140.0000    260881.000000        19.896900    261450.100000      -100.239000    260145.600000       139.708000       782.793800      -156.597300       762.024000        83.241910       742.909100       -39.311520        59.966060         0.012586
1643124141.0000    260952.700000         7.900627    261438.100000      -112.272600    260028.600000       127.710100       782.637700      -168.639300       761.260700        71.153730       741.995400       -51.311670        59.968210        -0.050834
1643124142.0000    260926.300000        -3.895035    261448.600000      -124.043100    260126.600000       115.919600       785.402300       179.608300       764.652800        59.434820       745.373500       -63.072220        59.968280         0.029816
1643124143.0000    260942.000000       -15.042220    261502.200000      -135.189900    260159.200000       104.765200       783.002700       168.473800       761.792600        48.290690       742.797900       -74.200120        59.968810        -0.026739
1643124144.0000    260997.900000       -25.556710    261441.600000      -145.721500    260091.800000        94.265920       784.060900       157.927800       762.859300        37.740880       744.275100       -84.738860        59.972280        -0.001823
1643124145.0000    260856.300000       -35.680140    261336.600000      -155.826100    260034.400000        84.143230       784.078900       147.725500       763.859900        27.567960       744.255200       -94.943620        59.973140         0.030097
1643124146.0000    260834.800000       -45.379920    261164.000000      -165.501900    260026.500000        74.487190       784.633500       137.907500       763.470400        17.778320       744.715500      -104.723100        59.975040         0.073209
1643124147.0000    260921.500000       -54.889850    261457.900000      -175.047500    260088.400000        64.916710       784.531400       128.637200       763.832800         8.443285       744.879800      -114.063300        59.974020        -0.050278
1643124148.0000    260853.800000       -64.340640    261296.800000       175.504300    259979.000000        55.487630       785.832600       119.045200       764.636700        -1.138024       745.525500      -123.630100        59.974340        -0.085855
1643124149.0000    260848.100000       -73.362050    261368.100000       166.485000    260022.200000        46.450200       785.287800       110.110900       764.047800       -10.061030       745.209700      -132.583200        59.976220        -0.073968
1643124150.0000    261026.700000       -81.842900    261492.300000       157.999100    260156.400000        37.978050       782.698000       101.626000       761.502000       -18.593270       742.083800      -141.042600        59.978470        -0.001691
1643124151.0000    261001.800000       -89.355000    261516.400000       150.489900    260165.700000        30.455990       782.387100        94.097370       761.023900       -26.085880       741.863400      -148.587100        59.981240        -0.023969
1643124152.0000    260939.400000       -96.346700    261495.900000       143.502400    260145.500000        23.459380       781.549800        87.107670       760.256500       -33.091640       741.332300      -155.584300        59.981240        -0.036835
1643124153.0000    260743.500000      -102.765500    261459.900000       137.092900    260054.500000        17.015660       782.185600        80.612690       761.343300       -39.550610       742.150800      -162.076500        59.982670        -0.016104
1643124154.0000    260905.800000      -108.658200    261460.100000       131.181400    260067.500000        11.142680       780.275200        74.813180       758.973100       -45.401930       740.234500      -167.895700        59.984860        -0.077294
1643124155.0000    260949.600000      -113.729800    261445.900000       126.125600    260148.800000         6.091576       781.704900        69.705970       760.249600       -50.488390       741.128500      -172.975300        59.987610         0.025625
1643124156.0000    260872.600000      -117.943600    261472.200000       121.915100    260134.400000         1.860009       780.560400        65.440730       759.139600       -54.749180       740.310100      -177.233000        59.988930         0.018195
1643124157.0000    260970.300000      -121.861600    261484.100000       118.004400    260213.400000        -2.037618       783.391700        61.633370       762.083400       -58.549260       742.788100       178.964700        59.990690         0.044760
1643124158.0000    260924.200000      -125.271200    261450.800000       114.582900    260132.900000        -5.456551       783.501300        58.229850       762.082300       -61.956150       742.837100       175.546300        59.994090        -0.094497
1643124159.0000    260906.400000      -127.653500    261555.700000       112.195800    260158.400000        -7.865393       783.723900        55.798230       762.680500       -64.391790       743.626000       173.123600        59.994220        -0.018539
1643124160.0000    260950.000000      -129.450500    261531.100000       110.402000    260183.000000        -9.647629       782.712700        54.032490       761.413300       -66.139630       742.392200       171.357300        59.995830        -0.029864
1643124161.0000    260844.300000      -130.389400    261388.200000       109.481700    260128.300000       -10.569810       784.645000        53.042820       763.652700       -67.143660       744.248500       170.389600        59.998270         0.022467
1643124162.0000    260733.800000      -130.932700    261380.100000       108.940000    260078.000000       -11.130980       783.780200        52.482330       762.904300       -67.709170       743.632800       169.792800        59.998010        -0.026333
1643124163.0000    260647.000000      -131.020900    261285.000000       108.837900    259922.500000       -11.223800       786.895800        52.290060       765.993400       -67.892200       746.583000       169.626400        60.000710         0.012394
1643124164.0000    260863.300000      -131.037800    261396.900000       108.803600    260026.200000       -11.229700       787.608800        52.453590       765.921900       -67.739110       746.843300       169.802000        60.000360         0.015341
1643124165.0000    260892.700000      -131.027900    261511.000000       108.814300    260100.000000       -11.235970       785.561800        52.467700       764.598200       -67.727770       745.149400       169.800800        59.999610        -0.053025
1643124166.0000    260835.800000      -131.419300    261429.100000       108.448100    260127.700000       -11.609930       786.243300        52.027620       765.263900       -68.189730       745.792400       169.367300        59.998810         0.019953
1643124167.0000    260842.200000      -132.391500    261450.200000       107.464600    260097.100000       -12.590420       786.526900        51.081130       765.452400       -69.085170       746.595100       168.462000        59.998200        -0.016080
1643124168.0000    260934.300000      -133.572800    261553.500000       106.273400    260162.500000       -13.779500       784.669600        49.943230       763.341000       -70.295270       744.221400       167.219000        59.997570        -0.063632
1643124169.0000    260846.400000      -135.505100    261482.300000       104.357100    260140.700000       -15.706350       785.075700        47.945250       764.293900       -72.248850       744.986100       165.295500        59.993360        -0.063336
1643124170.0000    260773.600000      -138.082900    261365.200000       101.785400    260065.200000       -18.271730       785.035000        45.354320       763.723600       -74.847730       744.791400       162.709200        59.991300        -0.002294
1643124171.0000    260780.800000      -141.268900    261352.600000        98.583690    259995.900000       -21.462500       784.392700        42.164860       763.149800       -78.000340       744.067700       159.539600        59.989990         0.021161
1643124172.0000    260877.600000      -145.180500    261431.100000        94.664440    260053.800000       -25.376460       783.344500        38.283160       761.781600       -81.932700       742.418400       155.630700        59.989180         0.007846
1643124173.0000    260719.700000      -149.959000    261346.000000        89.915790    260052.800000       -30.153850       784.021100        33.478470       762.511800       -86.736340       743.156100       150.798600        59.985780        -0.030551
1643124174.0000    260777.100000      -155.854600    261339.900000        84.003380    260006.100000       -36.043650       784.671300        27.552600       763.661000       -92.652270       743.893700       144.866900        59.982910        -0.009048
1643124175.0000    260777.400000      -162.455700    261364.200000        77.416570    260073.600000       -42.643980       782.484700        20.972590       761.125700       -99.230260       741.608300       138.292500        59.981090         0.038767
1643124176.0000    260585.400000      -169.953300    261249.100000        69.934180    259988.800000       -50.147920       781.089100        13.449550       759.992400      -106.739000       740.858300       130.772800        59.978240        -0.076795
1643124177.0000    260837.100000      -177.725000    261362.800000        62.140470    260080.900000       -57.903870       781.096200         5.744252       759.990900      -114.454800       741.132900       123.072400        59.979210        -0.063955
1643124178.0000    260852.700000       174.283400    261351.900000        54.151700    260094.000000       -65.889690       782.042800        -2.333124       760.744800      -122.517700       741.810600       114.976000        59.978320         0.045665
1643124179.0000    260778.500000       165.521400    261434.400000        45.385010    260076.000000       -74.682350       782.447300       -11.052110       761.530500      -131.265600       741.837600       106.271900        59.976430        -0.017273
