Terminal: LT 500  ANGRA FUR - NOVA IGUACU C1
Tensão base: 500 kV
SOC inicial: 1643124120
SOC final: 1643124179
Taxa: 1 fasores/s
Total de frames faltantes: - 

Tempo_(SOC)           VA_mod_(V)     VA_ang_(graus)     VB_mod_(V)     VB_ang_(graus)     VC_mod_(V)     VC_ang_(graus)     IA_mod_(A)     IA_ang_(graus)     IB_mod_(A)     IB_ang_(graus)     IC_mod_(A)     IC_ang_(graus)     Frequência        Delta_Freq     Faltante
1643124120.0000    304363.800000        30.765640    305681.100000       150.505100    306136.500000       -89.274640       417.968800        54.531800       413.033100       173.355300       415.034600       -65.955890        59.972480         0.072352
1643124121.0000    304339.700000        21.663000    305649.900000       141.459300    305847.800000       -98.351240       418.559100        45.336440       412.959500       164.174000       415.438600       -75.208210        59.973460        -0.170808
1643124122.0000    304287.600000        12.226060    305379.300000       131.945500    306033.500000      -107.858700       419.302400        35.695690       413.798700       154.486800       416.657700       -84.867250        59.973090        -0.390222
1643124123.0000    304631.500000         2.139142    305931.000000       121.914900    306221.400000      -117.885700       417.710100        25.753910       412.329500       144.536800       414.909100       -94.784960        59.971740        -0.323513
1643124124.0000    304547.600000        -8.042704    305849.300000       111.719200    306211.400000      -128.077000       419.038900        15.416330       413.930800       134.344500       415.789000      -105.025500        59.971390         0.019359
1643124125.0000    304554.100000       -18.743080    305875.600000       101.004600    306299.500000      -138.779100       418.550400         4.924475       413.304900       123.739400       415.752300      -115.616500        59.972370         0.084390
1643124126.0000    304165.300000       -29.911720    305640.000000        89.865140    305842.300000      -149.909000       418.772600        -6.442756       414.165200       112.405300       415.846500      -126.893700        59.967470         0.127305
1643124127.0000    304554.000000       -41.451910    305854.100000        78.281550    306331.800000      -161.498900       417.954100       -17.671960       412.280900       101.075300       415.017900      -138.308800        59.967920        -0.068309
1643124128.0000    304444.400000       -52.731380    305617.100000        67.045000    305979.800000      -172.776300       418.881800       -28.986260       413.502300        89.828150       415.435900      -149.606900        59.968540        -0.254308
1643124129.0000    304473.700000       -64.189070    305890.800000        55.581230    306157.300000       175.801700       418.473900       -40.499630       413.326600        78.353360       415.261600      -160.947700        59.967990        -0.090302
1643124130.0000    304468.500000       -75.603980    305858.200000        44.181370    306064.500000       164.388400       418.515600       -52.004130       412.697500        66.898130       415.088800      -172.522700        59.972050         0.239512
1643124131.0000    304167.900000       -87.163420    305596.200000        32.622300    305782.200000       152.836600       419.709200       -63.770600       414.057800        55.168060       415.616800       175.746200        59.964810        -0.223221
1643124132.0000    304328.200000       -99.446180    305768.300000        20.320770    306032.900000       140.545900       418.230000       -76.168800       412.286700        42.737670       414.287700       163.309100        59.963240        -0.282088
1643124133.0000    304360.000000      -112.300800    305645.200000         7.477135    305937.400000       127.674000       418.828000       -88.853730       412.478100        29.997320       415.255000       150.527500        59.964140         0.063976
1643124134.0000    304175.600000      -125.897900    305721.600000        -6.115052    305856.400000       114.119900       418.371900      -102.514900       412.855900        16.400560       414.774300       136.996500        59.961780         0.045027
1643124135.0000    304440.300000      -140.156500    305831.400000       -20.393250    306133.900000        99.827290       417.558300      -116.625100       411.704000         2.236601       414.092800       122.800100        59.959210         0.081694
1643124136.0000    304437.300000      -154.575400    305876.300000       -34.822350    306208.100000        85.410350       417.704600      -130.745600       412.373700       -11.818180       414.158700       108.719300        59.959630        -0.229480
1643124137.0000    304402.000000      -168.669600    305759.900000       -48.884320    305981.100000        71.321010       417.455900      -145.024900       412.279500       -26.108580       413.769800        94.464660        59.961780         0.069831
1643124138.0000    304703.200000       177.869800    306031.200000       -62.359620    306339.800000        57.845150       417.292100      -158.346600       411.510700       -39.509270       413.783300        81.065380        59.964040         0.025357
1643124139.0000    304308.600000       165.138800    305726.100000       -75.080280    305924.600000        45.134650       418.950000      -170.983800       413.620800       -52.145730       415.581800        68.479490        59.967780         0.401053
1643124140.0000    304543.600000       152.537600    305900.200000       -87.681650    306144.000000        32.524220       417.171000       176.180000       411.978400       -64.959180       413.608200        55.707410        59.966990         0.221707
1643124141.0000    304278.300000       140.518100    305746.800000       -99.713310    305996.000000        20.515550       418.718300       164.303700       412.800200       -76.838520       414.847600        43.704400        59.965800        -0.185254
1643124142.0000    304507.500000       128.754600    305889.300000      -111.458700    306088.800000         8.745093       418.945300       152.522000       413.488500       -88.553360       415.129500        31.966270        59.966980        -0.104258
1643124143.0000    304549.100000       117.573600    305824.000000      -122.641300    306098.800000        -2.451565       419.559400       141.383900       413.636400       -99.719280       415.666900        20.829440        59.969200        -0.050602
1643124144.0000    304399.900000       107.090100    305739.400000      -133.145600    306065.800000       -12.935150       421.773400       130.832500       416.203000      -110.234500       418.233400        10.308850        59.971030         0.102635
1643124145.0000    304450.300000        97.000700    305766.000000      -143.227200    306073.100000       -23.023650       418.584100       120.760900       412.992000      -120.324300       414.946300         0.193286        59.972800         0.180677
1643124146.0000    304380.900000        87.382850    305620.300000      -152.872700    306084.000000       -32.668920       418.558900       111.266900       412.923200      -129.943700       415.633600        -9.337111        59.974410         0.092655
1643124147.0000    304608.400000        77.774860    305873.000000      -162.465000    306262.200000       -42.263080       417.845200       101.624300       411.963100      -139.543700       414.319100       -18.977300        59.973910         0.110781
1643124148.0000    304482.900000        68.392970    305745.000000      -171.882000    306290.000000       -51.666560       418.511200        92.412820       412.991100      -148.810300       415.700000       -28.189130        59.976200         0.049328
1643124149.0000    304357.400000        59.343480    305739.800000       179.102000    306072.600000       -60.678820       417.648000        83.174580       412.024900      -157.919500       413.916700       -37.373950        59.976550         0.198710
1643124150.0000    304663.800000        50.866790    305937.300000       170.631100    306304.300000       -69.168310       417.800000        74.945440       411.921000      -166.200400       414.240000       -45.644600        59.979650         0.229181
1643124151.0000    304643.900000        43.269960    305898.300000       163.055100    306181.900000       -76.757270       418.260600        67.249420       413.032500      -173.826600       414.825700       -53.260020        59.981170         0.064248
1643124152.0000    304695.200000        36.291460    306037.000000       156.061000    306342.400000       -83.731920       418.929400        60.168980       413.242900       179.073600       415.317600       -60.348910        59.981950         0.072124
1643124153.0000    304416.200000        29.852910    305785.100000       149.654500    305925.100000       -90.149230       418.103700        53.715700       412.360300       172.625700       414.143500       -66.808920        59.981300        -0.123022
1643124154.0000    304500.100000        24.002520    305922.800000       143.765600    306223.800000       -96.008490       416.873800        47.920040       411.163100       166.845400       413.003300       -72.645070        59.982590        -0.361575
1643124155.0000    304586.800000        18.957170    305807.800000       138.719000    306204.500000      -101.087200       415.794100        42.685970       410.077500       161.544300       412.396600       -77.916430        59.988220         0.074866
1643124156.0000    304501.300000        14.674640    305769.300000       134.454700    306067.300000      -105.353300       420.251300        38.589770       414.342100       157.473000       416.516300       -81.996290        59.987820        -0.032410
1643124157.0000    304672.700000        10.760190    305952.300000       130.528100    306294.300000      -109.274500       418.109900        34.628660       412.933800       153.448100       414.979300       -85.947070        59.989070         0.200573
1643124158.0000    304569.100000         7.424582    305852.400000       127.199000    306162.400000      -112.603800       417.861600        31.542020       412.065500       150.481600       413.967000       -89.001880        59.991430        -0.040411
1643124159.0000    304566.500000         4.947416    305927.000000       124.739400    306130.700000      -115.061800       417.884200        28.881240       412.509900       147.805800       413.651600       -91.669500        59.994330         0.145246
1643124160.0000    304664.400000         3.236955    305934.900000       123.001500    306303.300000      -116.799000       417.362800        27.336740       411.633300       146.160200       414.094800       -93.238740        59.996380        -0.091666
1643124161.0000    304477.300000         2.282964    305724.900000       122.049200    306085.500000      -117.756800       418.996000        26.361820       413.296400       145.201100       415.996400       -94.180240        59.997300        -0.140845
1643124162.0000    304576.000000         1.730867    305946.000000       121.507100    306192.600000      -118.283200       418.721600        25.670340       412.975200       144.605000       414.970900       -94.871870        59.998390        -0.282023
1643124163.0000    304274.100000         1.664954    305591.700000       121.420600    305979.800000      -118.368400       418.467000        25.508940       412.773400       144.322000       415.259500       -95.116760        59.999560        -0.027490
1643124164.0000    304527.500000         1.662588    305852.900000       121.422100    306216.400000      -118.368000       417.728900        25.443950       412.449300       144.283900       414.611800       -95.162470        60.000240         0.060279
1643124165.0000    304352.100000         1.659577    305612.400000       121.421200    305992.800000      -118.379400       418.927300        25.609410       413.188900       144.382800       415.618200       -95.001520        59.997070         0.035993
1643124166.0000    304382.100000         1.288094    305571.200000       121.059600    305938.300000      -118.758900       416.266100        24.845960       410.190800       143.686400       412.914600       -95.766490        59.997870         0.308603
1643124167.0000    304305.800000         0.299501    305757.200000       120.065600    306017.700000      -119.706300       416.480000        24.015860       410.869100       142.857100       413.204700       -96.553660        59.999860         0.157155
1643124168.0000    304501.100000        -0.917886    305887.800000       118.844300    306208.100000      -120.935600       418.786200        22.844480       413.020400       141.692200       415.251600       -97.709760        59.995530        -0.115497
1643124169.0000    304379.500000        -2.846639    305771.900000       116.935700    305994.500000      -122.852800       419.202400        20.582420       412.981200       139.530300       415.012400       -99.986050        59.994560         0.252232
1643124170.0000    304127.800000        -5.364779    305533.900000       114.396100    305843.200000      -125.382200       419.855000        18.104000       414.448300       137.009000       416.382900      -102.372500        59.989960         0.094434
1643124171.0000    304015.500000        -8.596950    305601.500000       111.199500    305659.000000      -128.565200       418.303300        14.456310       412.471200       133.484400       413.561600      -106.029500        59.990030        -0.155663
1643124172.0000    304215.200000       -12.519130    305687.300000       107.257300    305898.500000      -132.516000       417.830900        10.573210       412.406400       129.478600       413.844200      -109.940700        59.986470        -0.036560
1643124173.0000    304184.200000       -17.319850    305642.800000       102.489800    305703.800000      -137.303000       418.392200         5.813244       412.705800       124.837800       414.202500      -114.665000        59.983540        -0.212182
1643124174.0000    304271.700000       -23.144790    305563.800000        96.634510    305838.500000      -143.169200       417.642400         0.015099       411.048300       118.893400       413.654100      -120.631500        59.982010        -0.021842
1643124175.0000    304122.800000       -29.770170    305518.100000        90.000220    305792.800000      -149.783400       418.087700        -6.311394       412.487900       112.541100       414.358200      -126.869300        59.978450        -0.158956
1643124176.0000    304344.400000       -37.249240    305654.500000        82.547590    305855.400000      -157.263600       417.741600       -13.909340       411.258500       105.043200       413.493500      -134.477800        59.977300        -0.305555
1643124177.0000    304363.900000       -45.002160    305805.300000        74.745300    306176.400000      -165.019400       418.289000       -21.341150       412.934600        97.481260       414.985400      -141.899400        59.979190        -0.113290
1643124178.0000    304295.200000       -52.963030    305528.000000        66.814260    305847.700000      -172.998900       419.364800       -29.487270       413.105600        89.378530       415.684300      -150.134200        59.979680         0.403268
1643124179.0000    304418.000000       -61.771820    305813.700000        58.016750    306003.300000       178.224500       417.393300       -38.413790       411.728200        80.441480       413.784300      -159.025100        59.975190         0.191686
