Terminal: LT 525  IVAIPORA ELS - AREIA C1
Tensão base: 525 kV
SOC inicial: 1643124120
SOC final: 1643124179
Taxa: 1 fasores/s
Total de frames faltantes: - 

Tempo_(SOC)           VA_mod_(V)     VA_ang_(graus)     VB_mod_(V)     VB_ang_(graus)     VC_mod_(V)     VC_ang_(graus)     IA_mod_(A)     IA_ang_(graus)     IB_mod_(A)     IB_ang_(graus)     IC_mod_(A)     IC_ang_(graus)     Frequência        Delta_Freq     Faltante
1643124120.0000    312368.800000      -105.910800    313641.500000       134.020700    312175.900000        13.955780       752.471700       -94.031330       726.004500       147.136200       760.072000        28.551850        59.974690        -0.002747
1643124121.0000    312255.400000      -115.007200    313618.000000       124.941200    312189.400000         4.851063       753.671200      -103.039900       726.239800       138.134800       761.039200        19.604160        59.974160        -0.044174
1643124122.0000    312255.900000      -124.449200    313471.800000       115.493300    312068.600000        -4.571208       753.369700      -112.531700       725.695300       128.773600       762.261200        10.169650        59.973280         0.010300
1643124123.0000    312313.600000      -134.405900    313685.300000       105.538900    312248.800000       -14.546820       751.060100      -122.505000       723.385700       118.724900       758.742400         0.191977        59.972340        -0.024033
1643124124.0000    312385.100000      -144.604400    313692.400000        95.341740    312267.200000       -24.733030       750.823900      -132.654800       722.796800       108.549500       758.012600        -9.980968        59.971740         0.038452
1643124125.0000    312355.300000      -155.309100    313641.000000        84.618360    312140.800000       -35.447940       751.008900      -143.455300       724.236300        97.713550       758.274700       -20.827030        59.970230         0.019684
1643124126.0000    312224.800000      -166.537400    313605.200000        73.398450    312086.700000       -46.688230       752.398400      -154.525000       725.193500        86.620160       759.670500       -31.940560        59.967660        -0.034332
1643124127.0000    312359.300000      -178.137100    313626.100000        61.808290    312196.300000       -58.264320       754.687000      -166.377300       725.489300        74.850320       761.865500       -43.594910        59.967420         0.008011
1643124128.0000    312384.500000       170.665300    313634.800000        50.614900    312270.400000       -69.457340       751.002000      -177.472400       724.698900        63.742780       759.328900       -54.888620        59.968540         0.018311
1643124129.0000    312325.100000       159.149300    313649.700000        39.080360    312150.900000       -80.993560       754.528300       171.008600       727.570900        52.147410       761.721600       -66.422910        59.967460         0.006180
1643124130.0000    312439.700000       147.821400    313792.100000        27.771230    312359.300000       -92.316500       751.820300       159.770200       723.784400        40.958300       758.762300       -77.566370        59.969700         0.054016
1643124131.0000    312125.000000       136.216300    313483.100000        16.152750    311984.700000      -103.926400       752.559600       148.165500       725.728800        29.323770       759.617700       -89.248630        59.965630        -0.042114
1643124132.0000    312153.400000       123.917800    313478.400000         3.845359    311960.200000      -116.229800       752.838000       135.884200       726.396000        17.008220       760.125100      -101.569300        59.965420         0.000916
1643124133.0000    312221.400000       110.984400    313570.700000        -9.083139    312059.800000      -129.163000       753.335400       122.792200       726.541000         4.076733       762.164300      -114.563200        59.962900        -0.051727
1643124134.0000    312124.400000        97.438840    313494.300000       -22.633190    311939.700000      -142.716300       753.502300       109.418500       726.311900        -9.506531       759.905600      -128.015000        59.961550         0.021744
1643124135.0000    312334.500000        83.159140    313621.600000       -36.910120    312125.000000      -156.979400       752.990400        95.109520       725.356600       -23.695750       760.192800      -142.234000        59.960010         0.009613
1643124136.0000    312338.800000        68.696010    313639.300000       -51.372730    312135.500000      -171.446700       754.399000        80.577530       725.850200       -38.212460       761.539100      -156.693400        59.959260        -0.057220
1643124137.0000    312314.300000        54.614910    313620.800000       -65.436730    312205.000000       174.481700       753.454200        66.487840       726.021100       -52.379910       760.237200      -170.904100        59.962060         0.025177
1643124138.0000    312469.300000        41.181440    313770.700000       -78.872920    312342.700000       161.046100       754.696300        53.046930       726.588600       -65.751080       761.640000       175.763400        59.963970         0.013733
1643124139.0000    312310.400000        28.450180    313634.800000       -91.618080    312137.900000       148.306200       752.851900        40.223260       726.369400       -78.607840       760.334200       162.815300        59.966530         0.080109
1643124140.0000    312317.000000        15.847380    313666.300000      -104.205600    312234.200000       135.711800       753.779500        27.757050       726.098400       -91.036950       761.307800       150.411100        59.965980         0.029068
1643124141.0000    312337.400000         3.831126    313627.200000      -116.239900    312119.200000       123.692700       754.500900        15.555140       726.234000      -103.279500       761.574700       138.227500        59.967760         0.012817
1643124142.0000    312288.700000        -7.936087    313601.700000      -127.993700    312152.900000       111.929700       753.979400         3.860052       727.567100      -114.970100       761.557400       126.406500        59.967860         0.042801
1643124143.0000    312440.200000       -19.097800    313748.400000      -139.150800    312317.800000       100.766700       753.250400        -7.361263       725.762800      -126.114200       761.400100       115.313700        59.969100        -0.020599
1643124144.0000    312450.300000       -29.591220    313704.000000      -149.655800    312251.600000        90.276280       752.907800       -17.758790       724.783400      -136.514800       760.580200       104.939700        59.971460         0.027924
1643124145.0000    312307.200000       -39.736500    313574.300000      -159.793800    312144.200000        80.133000       754.853100       -27.943810       726.524000      -146.688300       762.515900        94.780970        59.972480         0.013046
1643124146.0000    312267.100000       -49.392160    313507.400000      -169.444200    312124.000000        70.487680       753.675100       -37.568190       725.583100      -156.304300       761.539600        85.141880        59.975250         0.093613
1643124147.0000    312364.100000       -58.944930    313646.000000      -179.006800    312192.100000        60.924620       753.635300       -47.125400       726.176800      -165.905700       761.409400        75.530240        59.973340        -0.016251
1643124148.0000    312372.500000       -68.340100    313556.000000       171.586400    312115.900000        51.532190       751.372200       -56.527580       723.645000      -175.271000       759.586200        66.143390        59.974480        -0.054932
1643124149.0000    312343.000000       -77.378000    313616.700000       162.554000    312137.000000        42.486630       751.348100       -65.526290       723.975300       175.649200       758.799600        57.108970        59.976130         0.034103
1643124150.0000    312471.200000       -85.905850    313701.600000       154.030300    312268.400000        33.969100       753.427300       -74.154960       726.284700       166.983800       760.777200        48.465100        59.977260         0.015564
1643124151.0000    312451.400000       -93.431060    313740.100000       146.516200    312314.500000        26.438880       752.998600       -81.746830       725.527700       159.475200       760.811500        40.910620        59.980900         0.046921
1643124152.0000    312523.700000      -100.397300    313810.300000       139.544400    312350.500000        19.466330       752.005200       -88.633710       724.098500       152.579800       759.355100        34.061270        59.981140        -0.033188
1643124153.0000    312310.300000      -106.817500    313696.800000       133.123400    312203.600000        13.030130       750.802100       -94.871570       724.194700       146.313600       758.101200        27.714440        59.982520         0.006866
1643124154.0000    312410.200000      -112.656900    313691.600000       127.267600    312196.900000         7.200522       748.743300      -100.866900       721.485700       140.288000       755.956500        21.744020        59.984660        -0.040970
1643124155.0000    312445.900000      -117.752200    313715.200000       122.186400    312279.000000         2.120375       750.169000      -105.955900       723.072900       135.266800       758.381300        16.687640        59.987300         0.024261
1643124156.0000    312463.900000      -121.898800    313784.300000       118.045000    312346.300000        -2.036370       745.798300      -110.125300       718.335000       131.155500       753.830700        12.586610        59.988830         0.002747
1643124157.0000    312484.700000      -125.830900    313764.000000       114.110600    312348.800000        -5.964351       747.026100      -114.000400       719.912000       127.274900       755.079500         8.689987        59.990530         0.040283
1643124158.0000    312504.200000      -129.254000    313786.500000       110.688500    312340.400000        -9.386951       747.780600      -117.503900       720.220900       123.747300       755.681700         5.163127        59.992650         0.017166
1643124159.0000    312406.000000      -131.646400    313752.300000       108.301200    312307.400000       -11.786050       747.129200      -120.012400       718.894600       121.191400       754.162400         2.705132        59.993880         0.015793
1643124160.0000    312489.700000      -133.423900    313803.600000       106.509200    312355.100000       -13.561930       747.910200      -121.663300       720.678900       119.551400       755.654700         0.952122        59.996300        -0.018082
1643124161.0000    312390.700000      -134.338900    313690.700000       105.601400    312261.400000       -14.474850       746.756000      -122.537000       719.421300       118.677900       754.494400         0.121395        59.998120        -0.009155
1643124162.0000    312362.000000      -134.900700    313682.800000       105.035900    312209.200000       -15.044340       747.137100      -123.177800       720.685300       118.015600       754.959900        -0.586055        59.997860        -0.083084
1643124163.0000    312210.100000      -134.995600    313502.800000       104.936500    312035.800000       -15.134300       748.010000      -123.213400       720.585100       117.916200       754.841400        -0.566467        60.000900         0.040741
1643124164.0000    312339.100000      -134.990400    313653.600000       104.936700    312145.900000       -15.130720       746.262600      -123.268300       719.310900       118.003600       754.489600        -0.625408        60.000800         0.009384
1643124165.0000    312323.700000      -134.992200    313646.400000       104.938700    312171.200000       -15.136910       746.410900      -123.224000       718.496400       118.077500       754.823700        -0.513125        59.998910        -0.015335
1643124166.0000    312213.400000      -135.401900    313468.700000       104.544700    312079.700000       -15.528540       748.152800      -123.584800       720.095300       117.616700       755.442300        -0.888311        59.997540        -0.022659
1643124167.0000    312215.300000      -136.388900    313578.400000       103.536600    312035.400000       -16.542700       747.855400      -124.570700       720.809100       116.642000       756.030100        -1.941381        59.997990         0.042572
1643124168.0000    312315.400000      -137.530800    313675.800000       102.393000    312131.000000       -17.684520       744.883300      -125.799000       718.480700       115.533100       754.119000        -3.122039        59.996020        -0.022888
1643124169.0000    312211.200000      -139.495700    313587.800000       100.451400    312126.100000       -19.636890       748.301300      -127.780900       720.162400       113.485400       756.009800        -5.044835        59.993970         0.031815
1643124170.0000    312221.800000      -142.015800    313523.700000        97.924450    312076.700000       -22.150420       747.144900      -130.099100       719.273700       111.081400       753.714200        -7.414423        59.991200        -0.013046
1643124171.0000    312180.700000      -145.241400    313535.900000        94.684600    312016.300000       -25.393550       748.488900      -133.302700       721.221900       107.871000       755.641500       -10.678990        59.989390        -0.042572
1643124172.0000    312229.700000      -149.173100    313504.500000        90.757680    312045.100000       -29.312970       749.651400      -137.304600       721.575300       103.815500       756.257600       -14.652120        59.988330         0.028152
1643124173.0000    312164.500000      -153.939500    313540.200000        86.000740    312060.300000       -34.087350       748.241600      -141.991600       721.413700        99.154710       754.970000       -19.382400        59.985410        -0.024033
1643124174.0000    312113.300000      -159.861600    313414.200000        80.070630    311933.300000       -40.003850       749.657200      -147.900900       722.761700        93.258620       756.851100       -25.302590        59.982260        -0.002060
1643124175.0000    312172.300000      -166.471100    313497.600000        73.469060    312037.000000       -46.614090       749.441500      -154.574800       721.406600        86.637160       756.797900       -31.878070        59.979870        -0.023117
1643124176.0000    312104.200000      -173.960800    313441.700000        65.988400    312030.200000       -54.097400       748.918900      -162.037200       721.440900        79.162830       756.316300       -39.357110        59.976900        -0.085144
1643124177.0000    312311.600000       178.287200    313580.100000        58.216050    312105.400000       -61.848160       748.892500      -169.899300       721.050600        71.306020       756.162600       -47.224120        59.978390        -0.043945
1643124178.0000    312195.900000       170.287100    313454.300000        50.225060    312023.700000       -69.845110       748.868500      -177.877400       722.666000        63.338060       756.752900       -55.307290        59.977750         0.043030
1643124179.0000    312155.100000       161.503200    313510.200000        41.443010    312026.200000       -78.645400       749.856800       173.413300       723.028700        54.582550       757.344000       -63.986060        59.975810         0.042343
