Terminal: LT 525  C.NOVOS - AREIA C1
Tensão base: 525 kV
SOC inicial: 1643124120
SOC final: 1643124179
Taxa: 1 fasores/s
Total de frames faltantes: - 

Tempo_(SOC)           VA_mod_(V)     VA_ang_(graus)     VB_mod_(V)     VB_ang_(graus)     VC_mod_(V)     VC_ang_(graus)     IA_mod_(A)     IA_ang_(graus)     IB_mod_(A)     IB_ang_(graus)     IC_mod_(A)     IC_ang_(graus)     Frequência        Delta_Freq     Faltante
1643124120.0000    309053.100000      -128.833400    310513.400000       111.103700    309571.700000        -9.067390      1440.007000        59.254550      1464.424000       -60.349330      1461.626000       179.499600        59.975580         0.001373
1643124121.0000    309006.200000      -137.953700    310460.100000       101.991100    309569.000000       -18.179320      1441.139000        50.150490      1467.151000       -69.490470      1462.260000       170.320300        59.974260        -0.035019
1643124122.0000    309021.500000      -147.398200    310514.900000        92.545070    309580.400000       -27.630370      1441.449000        40.752070      1466.963000       -78.831990      1463.797000       160.961100        59.973040         0.042801
1643124123.0000    308998.600000      -157.310400    310501.000000        82.661030    309701.300000       -37.532120      1439.392000        30.785350      1464.134000       -88.832630      1460.455000       151.015100        59.972440         0.028381
1643124124.0000    309098.600000      -167.493100    310554.500000        72.466120    309705.800000       -47.712810      1439.161000        20.609230      1464.321000       -98.991810      1460.867000       140.815100        59.971570         0.019226
1643124125.0000    309042.200000      -178.211100    310528.300000        61.716670    309519.300000       -58.447120      1439.333000         9.926780      1464.866000      -109.699600      1460.775000       130.127000        59.971420         0.105057
1643124126.0000    309026.400000       170.546400    310516.200000        50.500720    309628.200000       -69.684230      1439.905000        -1.336209      1463.494000      -120.958300      1460.194000       118.914000        59.967750        -0.010757
1643124127.0000    308948.000000       158.896700    310399.600000        38.862820    309590.000000       -81.317780      1441.876000       -13.011010      1466.834000      -132.603600      1463.693000       107.212500        59.968170         0.059052
1643124128.0000    309067.500000       147.759600    310558.300000        27.701540    309610.900000       -92.475140      1439.699000       -24.111850      1465.756000      -143.711300      1461.967000        96.095170        59.969010         0.008469
1643124129.0000    309060.600000       136.171600    310524.800000        16.099140    309541.800000      -104.066500      1443.654000       -35.667950      1469.022000      -155.308900      1464.674000        84.529190        59.968690         0.015335
1643124130.0000    309128.600000       124.919700    310589.300000         4.879812    309732.700000      -115.300100      1439.906000       -46.996560      1465.050000      -166.611600      1461.233000        73.202860        59.969320         0.054474
1643124131.0000    308913.800000       113.263900    310341.200000        -6.802074    309397.300000      -126.967600      1442.337000       -58.585660      1467.764000      -178.239000      1462.803000        61.603360        59.967060         0.030441
1643124132.0000    308925.300000       100.957000    310460.600000       -19.115470    309439.300000      -139.287400      1442.696000       -70.898800      1467.679000       169.503700      1463.965000        49.320520        59.965860         0.013275
1643124133.0000    308931.800000        88.015820    310493.300000       -32.038650    309516.500000      -152.227600      1442.400000       -83.817310      1467.617000       156.536800      1463.573000        36.369220        59.962210        -0.082626
1643124134.0000    308955.100000        74.479540    310374.500000       -45.603130    309354.700000      -165.757400      1442.435000       -97.363180      1468.183000       142.977400      1462.966000        22.797450        59.961330        -0.026779
1643124135.0000    309070.600000        60.220320    310517.800000       -59.837390    309587.500000       179.995300      1441.669000      -111.655100      1466.772000       128.712100      1462.867000         8.561650        59.960060         0.002975
1643124136.0000    309020.200000        45.723160    310530.500000       -74.330600    309615.100000       165.492700      1443.628000      -126.153600      1469.022000       114.233300      1465.304000        -5.954118        59.959150        -0.036392
1643124137.0000    309057.600000        31.662740    310501.100000       -88.391970    309602.100000       151.441800      1442.241000      -140.169000      1467.843000       100.207700      1463.917000       -19.963060        59.962250         0.034103
1643124138.0000    309154.300000        18.218660    310579.800000      -101.826400    309734.000000       137.997000      1442.601000      -153.661200      1468.875000        86.722950      1464.624000       -33.478740        59.964020        -0.029297
1643124139.0000    308937.400000         5.486840    310434.300000      -114.585300    309442.000000       125.244900      1442.516000      -166.377300      1468.210000        74.009120      1464.422000       -46.189560        59.964980         0.019226
1643124140.0000    309003.000000        -7.110039    310510.300000      -127.153600    309632.200000       112.660100      1442.755000      -179.012600      1467.746000        61.390340      1464.456000       -58.784990        59.966090         0.032043
1643124141.0000    309006.900000       -19.147340    310422.700000      -139.198700    309522.300000       100.632400      1442.510000       169.019200      1467.139000        49.402930      1463.713000       -70.763780        59.967510         0.028381
1643124142.0000    308960.800000       -30.917060    310412.700000      -150.974500    309477.300000        88.854560      1443.868000       157.241700      1468.292000        37.609460      1464.277000       -82.538360        59.967570         0.038452
1643124143.0000    308998.800000       -42.051150    310513.700000      -162.092100    309624.100000        77.720500      1442.182000       146.059900      1466.598000        26.447180      1463.290000       -93.720660        59.969610         0.029984
1643124144.0000    309125.700000       -52.536500    310562.200000      -172.591200    309657.600000        67.240710      1442.150000       135.610900      1467.524000        15.979730      1463.631000      -104.196200        59.971550         0.003433
1643124145.0000    309022.100000       -62.718420    310455.800000       177.226400    309558.300000        57.058320      1442.901000       125.464500      1469.523000         5.827530      1464.831000      -114.383800        59.972220        -0.003433
1643124146.0000    309004.400000       -72.367860    310429.600000       167.591000    309579.100000        47.415950      1442.785000       115.796200      1468.413000        -3.796139      1464.764000      -123.975100        59.974940         0.073242
1643124147.0000    309114.900000       -81.903990    310579.500000       158.040700    309669.900000        37.867610      1442.320000       106.281300      1467.468000       -13.341950      1463.742000      -133.512100        59.973450        -0.012131
1643124148.0000    309052.000000       -91.275180    310510.300000       148.664600    309582.300000        28.493720      1441.618000        96.885930      1466.585000       -22.704520      1463.471000      -142.884400        59.973670        -0.055847
1643124149.0000    309050.500000      -100.325200    310525.000000       139.606300    309551.900000        19.441510      1442.688000        87.859950      1467.890000       -31.766570      1464.402000      -151.944200        59.975510        -0.012817
1643124150.0000    309104.600000      -108.895500    310544.200000       131.036100    309575.200000        10.875140      1445.347000        79.288120      1470.636000       -40.316640      1467.108000      -160.510300        59.977570         0.014877
1643124151.0000    308953.300000      -116.440700    310423.400000       123.519400    309570.500000         3.338643      1446.327000        71.675890      1471.201000       -47.935110      1467.539000      -168.095600        59.979710         0.001144
1643124152.0000    309089.700000      -123.370800    310571.000000       116.580500    309663.800000        -3.598388      1445.417000        64.754620      1470.206000       -54.850830      1466.736000      -175.025600        59.981430        -0.015564
1643124153.0000    309113.600000      -129.788600    310627.800000       110.155400    309673.300000       -10.021620      1445.450000        58.415760      1470.960000       -61.214770      1467.004000       178.595900        59.983420         0.020828
1643124154.0000    309035.700000      -135.612300    310525.700000       104.319000    309535.500000       -15.847970      1445.394000        52.597790      1470.310000       -67.022770      1466.829000       172.816300        59.985730         0.037766
1643124155.0000    309004.500000      -140.769200    310512.300000        99.168160    309545.600000       -21.008870      1450.433000        47.400260      1475.902000       -72.200070      1472.498000       167.606300        59.987720        -0.011215
1643124156.0000    308946.500000      -144.843700    310448.200000        95.112610    309590.300000       -25.074950      1447.190000        43.305800      1472.135000       -76.320730      1468.474000       163.509100        59.988410         0.000687
1643124157.0000    309081.000000      -148.792100    310594.200000        91.150060    309639.000000       -29.029960      1448.249000        39.412760      1473.877000       -80.213470      1469.716000       159.603200        59.991020         0.034790
1643124158.0000    309059.500000      -152.229800    310550.700000        87.715550    309615.800000       -32.461520      1448.470000        35.977950      1474.125000       -83.627200      1470.173000       156.173400        59.992090         0.024490
1643124159.0000    308920.700000      -154.636100    310415.800000        85.320430    309542.100000       -34.862610      1449.130000        33.592440      1474.601000       -86.002690      1470.874000       153.810900        59.993870        -0.007782
1643124160.0000    309047.300000      -156.419300    310518.700000        83.522680    309573.500000       -36.650620      1450.034000        31.777240      1475.045000       -87.848430      1471.241000       151.980700        59.996930        -0.016937
1643124161.0000    308993.300000      -157.312600    310497.700000        82.636490    309552.200000       -37.543790      1448.016000        30.912970      1473.865000       -88.696400      1469.784000       151.107300        59.997200        -0.044403
1643124162.0000    308890.500000      -157.925700    310379.800000        82.012790    309420.700000       -38.161980      1452.153000        30.320220      1477.122000       -89.319890      1473.028000       150.516900        59.997360        -0.079193
1643124163.0000    308888.600000      -158.039000    310311.800000        81.901210    309407.900000       -38.265160      1452.526000        30.245390      1477.050000       -89.360930      1473.522000       150.470400        60.000260        -0.009842
1643124164.0000    308912.600000      -157.999400    310450.800000        81.935420    309459.800000       -38.242220      1451.386000        30.263480      1476.694000       -89.372830      1472.216000       150.468900        60.001120         0.014420
1643124165.0000    308959.000000      -157.971800    310511.800000        81.977460    309576.800000       -38.211170      1448.539000        30.304090      1474.059000       -89.324010      1469.993000       150.495000        59.999080        -0.014191
1643124166.0000    308866.500000      -158.419300    310239.800000        81.523440    309351.400000       -38.635950      1449.956000        29.845210      1476.653000       -89.803120      1471.654000       149.987600        59.997180        -0.041656
1643124167.0000    308810.900000      -159.392700    310386.400000        80.539200    309336.700000       -39.645900      1448.635000        28.809480      1474.908000       -90.805640      1470.992000       148.988100        59.999210         0.086060
1643124168.0000    308844.200000      -160.487200    310481.700000        79.439870    309391.300000       -40.751830      1447.477000        27.721820      1473.549000       -91.900430      1468.981000       147.902900        59.994420        -0.031586
1643124169.0000    308744.000000      -162.523800    310284.800000        77.446660    309445.300000       -42.748870      1451.038000        25.691020      1475.534000       -93.917590      1472.149000       145.929500        59.994010         0.025635
1643124170.0000    308857.900000      -165.005100    310288.600000        74.939230    309399.000000       -45.228830      1449.451000        23.192200      1475.236000       -96.426610      1470.793000       143.378900        59.992120         0.045090
1643124171.0000    308936.700000      -168.225100    310469.200000        71.707820    309466.600000       -48.467710      1447.708000        20.007790      1473.093000       -99.604160      1469.489000       140.204800        59.990360         0.006180
1643124172.0000    308873.300000      -172.191200    310270.600000        67.744410    309326.900000       -52.414160      1449.383000        16.014060      1475.253000      -103.613000      1470.825000       136.206400        59.987950         0.036621
1643124173.0000    308937.400000      -176.908200    310462.400000        63.033450    309496.800000       -57.146890      1446.611000        11.325810      1472.455000      -108.291900      1468.306000       131.521200        59.986340         0.001602
1643124174.0000    308826.500000       177.144600    310376.700000        57.070510    309333.800000       -63.107590      1447.623000         5.326914      1473.461000      -114.249900      1470.501000       125.530400        59.982210        -0.030212
1643124175.0000    308885.900000       170.536100    310402.600000        50.486800    309485.800000       -69.698570      1447.605000        -1.235198      1473.393000      -120.849200      1469.563000       118.974000        59.980460        -0.012360
1643124176.0000    308909.000000       163.075000    310419.300000        43.027930    309520.100000       -77.154200      1445.618000        -8.674088      1471.410000      -128.285300      1467.518000       111.518900        59.978250         0.001144
1643124177.0000    308884.500000       155.304600    310348.300000        35.234060    309354.800000       -84.929890      1447.849000       -16.530570      1474.059000      -136.144900      1469.817000       103.657500        59.978240        -0.036621
1643124178.0000    308847.300000       147.295400    310310.100000        27.236870    309373.100000       -92.937390      1447.651000       -24.482520      1472.798000      -144.100100      1468.947000        95.728980        59.978080         0.091553
1643124179.0000    308918.600000       138.519800    310427.900000        18.463600    309478.000000      -101.718800      1446.496000       -33.244460      1471.743000      -152.861200      1468.026000        86.953610        59.975640         0.012817
