Terminal: LT 525  ITA - S.SANTIAGO C1
Tensão base: 525 kV
SOC inicial: 1643124120
SOC final: 1643124179
Taxa: 1 fasores/s
Total de frames faltantes: - 

Tempo_(SOC)           VA_mod_(V)     VA_ang_(graus)     VB_mod_(V)     VB_ang_(graus)     VC_mod_(V)     VC_ang_(graus)     IA_mod_(A)     IA_ang_(graus)     IB_mod_(A)     IB_ang_(graus)     IC_mod_(A)     IC_ang_(graus)     Frequência        Delta_Freq     Faltante
1643124120.0000    310579.300000      -125.878100    309766.700000       113.927900    309383.800000        -6.073761      1386.200000        59.214540      1400.314000       -61.438800      1396.798000       178.343300        59.975000        -0.011444
1643124121.0000    310531.900000      -135.001800    309675.800000       104.807500    309331.600000       -15.191480      1387.456000        50.126270      1402.822000       -70.582840      1397.841000       169.173800        59.974320        -0.030441
1643124122.0000    310531.200000      -144.441800    309754.700000        95.362690    309343.300000       -24.642090      1388.262000        40.707190      1402.898000       -79.911090      1399.947000       159.828200        59.973430         0.072098
1643124123.0000    310536.200000      -154.352800    309747.300000        85.483620    309507.400000       -34.537580      1385.566000        30.740950      1399.010000       -89.921410      1395.504000       149.883500        59.971740        -0.002289
1643124124.0000    310608.400000      -164.538000    309797.300000        75.282420    309492.500000       -44.727600      1385.669000        20.571930      1399.580000      -100.083100      1396.067000       139.683300        59.971900         0.027466
1643124125.0000    310608.200000      -175.251900    309781.300000        64.543350    309382.700000       -55.453590      1385.668000         9.864974      1400.886000      -110.794200      1396.144000       128.963000        59.971710         0.122910
1643124126.0000    310549.700000       173.501300    309772.000000        53.326030    309459.300000       -66.690530      1386.080000        -1.372855      1399.944000      -122.042600      1395.986000       117.754000        59.967580        -0.023346
1643124127.0000    310477.700000       161.859300    309646.800000        41.684780    309374.300000       -78.325140      1388.674000       -13.060020      1402.362000      -133.711900      1398.546000       106.077800        59.967210         0.024033
1643124128.0000    310620.300000       150.720200    309818.400000        30.524590    309435.800000       -89.483320      1386.509000       -24.175590      1401.853000      -144.799700      1397.958000        94.921770        59.969040        -0.003433
1643124129.0000    310607.600000       139.126700    309784.600000        18.924650    309370.700000      -101.071900      1389.709000       -35.716950      1404.707000      -156.398900      1399.978000        83.355200        59.968700         0.011444
1643124130.0000    310651.000000       127.867000    309836.900000         7.689466    309539.500000      -112.319200      1386.427000       -47.053700      1401.096000      -167.713500      1396.646000        72.052190        59.968980         0.037308
1643124131.0000    310440.700000       116.220400    309590.900000        -3.980935    309197.500000      -123.972800      1388.623000       -58.638520      1403.846000      -179.341900      1398.419000        60.433650        59.967250         0.036850
1643124132.0000    310465.500000       103.914500    309712.200000       -16.292110    309259.700000      -136.295400      1388.931000       -70.959920      1403.936000       168.396600      1399.835000        48.153120        59.966130         0.021057
1643124133.0000    310501.400000        90.971890    309731.800000       -29.220690    309345.000000      -149.233900      1389.190000       -83.911450      1403.600000       155.434400      1399.479000        35.205470        59.962460        -0.077820
1643124134.0000    310492.800000        77.434530    309607.400000       -42.781190    309169.400000      -162.764600      1388.786000       -97.431600      1403.856000       141.848700      1398.631000        21.610310        59.961420        -0.017624
1643124135.0000    310620.000000        63.170230    309742.600000       -57.022690    309409.000000      -177.020500      1388.103000      -111.707300      1402.583000       127.622600      1398.209000         7.396575        59.959960        -0.012817
1643124136.0000    310552.600000        48.676330    309768.500000       -71.514460    309399.900000       168.477400      1390.069000      -126.198800      1404.127000       113.149000      1400.373000        -7.088056        59.959060        -0.034332
1643124137.0000    310651.400000        34.613720    309800.000000       -85.574910    309463.400000       154.425500      1388.625000      -140.234400      1403.443000        99.102020      1399.062000       -21.138550        59.961860        -0.002518
1643124138.0000    310703.900000        21.168380    309856.500000       -99.017750    309536.200000       140.981500      1389.712000      -153.716200      1404.392000        85.625280      1399.659000       -34.602260        59.964200         0.000000
1643124139.0000    310473.200000         8.448991    309681.700000      -111.757400    309232.900000       128.241300      1389.125000      -166.475400      1404.475000        72.866290      1399.805000       -47.404830        59.965670         0.035477
1643124140.0000    310534.600000        -4.155644    309766.200000      -124.333600    309424.800000       115.650700      1389.243000      -179.078600      1403.691000        60.259200      1399.541000       -59.955980        59.966460         0.044174
1643124141.0000    310559.800000       -16.178990    309734.700000      -136.366200    309380.000000       103.636500      1388.850000       168.934000      1403.034000        48.268020      1398.437000       -71.960410        59.968140         0.054932
1643124142.0000    310496.200000       -27.954240    309660.900000      -148.143500    309299.800000        91.855460      1389.551000       157.152900      1403.961000        36.471310      1399.674000       -83.726020        59.967370         0.024261
1643124143.0000    310565.100000       -39.087580    309787.600000      -159.265500    309471.200000        80.718150      1388.703000       145.982200      1402.887000        25.329390      1398.832000       -94.900400        59.969440         0.010986
1643124144.0000    310658.800000       -49.580670    309794.600000      -169.771500    309449.700000        70.232190      1388.594000       135.522400      1403.240000        14.855830      1398.510000      -105.371000        59.971140        -0.016708
1643124145.0000    310577.100000       -59.759000    309706.300000      -179.955100    309328.700000        60.050560      1389.440000       125.366900      1404.998000         4.696945      1400.191000      -115.560000        59.972170        -0.011444
1643124146.0000    310554.700000       -69.398950    309725.700000       170.419800    309403.300000        50.417340      1389.502000       115.728600      1403.870000        -4.921882      1399.970000      -125.145500        59.974430         0.030670
1643124147.0000    310692.000000       -78.944860    309837.400000       160.864700    309490.300000        40.863220      1388.398000       106.211100      1402.796000       -14.454710      1398.862000      -134.683900        59.973270        -0.018539
1643124148.0000    310611.700000       -88.318700    309802.900000       151.487500    309412.000000        31.486960      1387.771000        96.796020      1402.313000       -23.837910      1398.252000      -144.084300        59.974010        -0.032959
1643124149.0000    310628.000000       -97.364090    309799.700000       142.436000    309387.400000        22.438410      1387.828000        87.771200      1402.958000       -32.895150      1398.426000      -153.136300        59.975270        -0.020142
1643124150.0000    310685.500000      -105.932200    309822.400000       133.867800    309425.600000        13.869290      1390.444000        79.194310      1405.250000       -41.447410      1401.004000      -161.699200        59.977430         0.008011
1643124151.0000    310489.300000      -113.477600    309665.600000       126.348400    309375.400000         6.336886      1391.837000        71.596940      1406.154000       -49.061280      1401.848000      -169.285000        59.979560        -0.010986
1643124152.0000    310651.800000      -120.417200    309819.900000       119.402400    309495.700000        -0.608142      1390.241000        64.668700      1404.730000       -55.981560      1400.412000      -176.214400        59.981300        -0.013046
1643124153.0000    310665.600000      -126.825900    309878.300000       112.983700    309493.800000        -7.025589      1389.585000        58.339030      1404.790000       -62.331170      1399.967000       177.420900        59.982950        -0.001831
1643124154.0000    310616.500000      -132.645800    309813.100000       107.151600    309403.000000       -12.847580      1389.532000        52.504680      1404.315000       -68.148060      1400.281000       171.600400        59.985690         0.041428
1643124155.0000    310519.400000      -137.805500    309757.300000       101.999200    309325.800000       -18.010890      1394.123000        47.321310      1408.876000       -73.306180      1405.195000       166.434000        59.988220         0.013046
1643124156.0000    310454.100000      -141.885800    309673.900000        97.937430    309360.600000       -22.077220      1391.662000        43.198590      1405.883000       -77.458910      1402.246000       162.312400        59.988290         0.003891
1643124157.0000    310648.900000      -145.826600    309845.000000        93.978680    309445.300000       -26.024560      1391.879000        39.327000      1407.194000       -81.326430      1402.776000       158.419100        59.990840         0.028152
1643124158.0000    310633.500000      -149.257500    309830.400000        90.551560    309459.100000       -29.455250      1391.940000        35.885910      1407.006000       -84.764160      1402.517000       154.983400        59.992610         0.035706
1643124159.0000    310515.900000      -151.664200    309730.300000        88.159580    309373.800000       -31.857940      1392.376000        33.473280      1407.210000       -87.165620      1403.127000       152.590500        59.993880         0.000000
1643124160.0000    310616.400000      -153.444700    309783.000000        86.363300    309414.800000       -33.640140      1393.007000        31.710000      1407.635000       -88.957020      1403.188000       150.818100        59.996940        -0.029755
1643124161.0000    310548.400000      -154.334600    309751.500000        85.475910    309384.900000       -34.533420      1391.681000        30.820200      1406.821000       -89.823560      1402.543000       149.922600        59.997050        -0.052872
1643124162.0000    310480.700000      -154.956400    309635.300000        84.852630    309263.600000       -35.150210      1394.941000        30.214060      1409.514000       -90.458410      1405.443000       149.315100        59.997390        -0.063400
1643124163.0000    310434.400000      -155.063900    309573.000000        84.745530    309242.600000       -35.248370      1395.479000        30.146540      1409.870000       -90.527090      1405.328000       149.252100        60.000880         0.021973
1643124164.0000    310498.200000      -155.031600    309710.100000        84.771800    309308.800000       -35.232430      1394.163000        30.149480      1408.843000       -90.509470      1404.770000       149.265900        60.000960         0.003204
1643124165.0000    310577.200000      -154.999000    309800.800000        84.813780    309416.200000       -35.199130      1391.961000        30.199230      1406.562000       -90.452950      1402.576000       149.298300        59.999140        -0.006180
1643124166.0000    310425.800000      -155.433000    309486.700000        84.368490    309149.700000       -35.618060      1393.219000        29.758260      1408.833000       -90.960230      1403.210000       148.793100        59.997820        -0.022202
1643124167.0000    310395.500000      -156.410300    309686.900000        83.381700    309185.100000       -36.629020      1391.454000        28.714800      1407.206000       -91.940460      1403.008000       147.797800        59.999130         0.071869
1643124168.0000    310423.400000      -157.516500    309747.200000        82.273920    309224.700000       -37.738390      1390.630000        27.621520      1406.170000       -93.023280      1402.138000       146.706300        59.994440        -0.026550
1643124169.0000    310343.000000      -159.544800    309553.300000        80.291110    309292.800000       -39.733950      1394.188000        25.596710      1407.727000       -95.059770      1403.995000       144.747500        59.993730         0.002747
1643124170.0000    310406.200000      -162.028800    309549.900000        77.775440    309168.800000       -42.218160      1392.204000        23.122180      1407.358000       -97.557030      1402.712000       142.204500        59.992300         0.040741
1643124171.0000    310532.200000      -165.244700    309755.200000        74.553190    309312.100000       -45.451000      1390.952000        19.932870      1405.970000      -100.720000      1401.729000       139.020500        59.990550         0.005951
1643124172.0000    310456.800000      -169.208000    309568.700000        70.589360    309181.200000       -49.397150      1393.053000        15.963990      1408.242000      -104.722700      1403.174000       135.040600        59.987470        -0.011215
1643124173.0000    310550.700000      -173.921700    309788.600000        65.884970    309368.900000       -54.121830      1390.115000        11.252830      1405.112000      -109.413200      1400.792000       130.343300        59.985640        -0.014877
1643124174.0000    310408.100000      -179.865400    309682.900000        59.922570    309173.100000       -60.084630      1390.313000         5.274069      1406.256000      -115.359100      1402.353000       124.365800        59.981860        -0.047607
1643124175.0000    310509.100000       173.522900    309726.100000        53.332710    309348.700000       -66.675260      1391.055000        -1.310104      1405.649000      -121.957400      1401.851000       117.805100        59.980550        -0.013504
1643124176.0000    310543.700000       166.058100    309744.700000        45.874660    309405.200000       -74.137340      1389.153000        -8.755187      1404.424000      -129.409000      1400.165000       110.336900        59.977990        -0.009384
1643124177.0000    310467.600000       158.288500    309619.500000        38.080520    309172.800000       -81.910170      1391.249000       -16.591350      1406.540000      -137.260500      1401.688000       102.475900        59.977720        -0.059738
1643124178.0000    310446.300000       150.279400    309608.400000        30.087450    309259.200000       -89.912900      1391.357000       -24.575370      1405.959000      -145.227900      1402.023000        94.529680        59.977350         0.046692
1643124179.0000    310538.500000       141.503900    309766.800000        21.313330    309357.500000       -98.692920      1390.207000       -33.317460      1405.155000      -153.977300      1400.871000        85.755480        59.975510         0.014648
