Terminal: LT 500  VILA DO CONDE - MARITUBA C1
Tensão base: 500 kV
SOC inicial: 1643124120
SOC final: 1643124179
Taxa: 1 fasores/s
Total de frames faltantes: - 

Tempo_(SOC)           VA_mod_(V)     VA_ang_(graus)     VB_mod_(V)     VB_ang_(graus)     VC_mod_(V)     VC_ang_(graus)     IA_mod_(A)     IA_ang_(graus)     IB_mod_(A)     IB_ang_(graus)     IC_mod_(A)     IC_ang_(graus)     Frequência        Delta_Freq     Faltante
1643124120.0000    304536.500000       -13.313100    304483.800000      -133.361900    304100.500000       106.739200       425.986200        -2.876966       429.268100      -121.993500       437.731200       117.708800        59.975170         0.013504
1643124121.0000    304483.500000       -22.309640    304438.000000      -142.360100    304039.100000        97.737140       425.994400       -11.896210       429.528100      -131.033600       437.681000       108.680100        59.975120         0.013275
1643124122.0000    304378.000000       -31.678460    304356.900000      -151.732000    303973.200000        88.366800       425.937600       -21.257800       429.628100      -140.396600       437.924200        99.318870        59.972520        -0.031815
1643124123.0000    304393.300000       -41.645720    304361.800000      -161.698300    303955.500000        78.401340       425.933200       -31.162810       429.239900      -150.395400       437.999300        89.419170        59.972260         0.026321
1643124124.0000    304381.200000       -52.160210    304347.000000      -172.208500    303975.200000        67.888050       425.859500       -41.630920       429.751000      -160.868500       437.865600        78.825430        59.971100        -0.019455
1643124125.0000    304363.300000       -62.609180    304324.900000       177.345100    303940.300000        57.441490       426.128000       -52.172890       429.246400      -171.344700       437.684000        68.345200        59.970570         0.035934
1643124126.0000    304351.100000       -73.778710    304297.000000       166.172900    303910.100000        46.269920       426.609200       -63.295630       429.158000       177.472900       438.429400        57.222760        59.967800        -0.020370
1643124127.0000    304388.100000       -85.353780    304349.100000       154.598700    303983.600000        34.698230       425.723900       -74.858700       429.131600       165.877200       437.672100        45.604870        59.967290         0.016479
1643124128.0000    304576.400000       -97.011940    304512.300000       142.939700    304151.700000        23.039040       426.128100       -86.615710       429.227400       154.161400       438.016700        33.934150        59.968010        -0.046005
1643124129.0000    304447.200000      -107.960400    304403.800000       131.986100    303989.000000        12.090470       426.237200       -97.584310       429.499300       143.185900       438.047100        22.940490        59.969250        -0.000229
1643124130.0000    304273.400000      -119.420500    304238.100000       120.528500    303833.500000         0.627724       426.504500      -109.073000       429.780000       131.805800       438.492100        11.440040        59.966720        -0.012589
1643124131.0000    304225.600000      -130.884100    304134.200000       109.062000    303764.900000       -10.834700       426.465400      -120.423500       429.344500       120.358000       437.822800         0.091139        59.967050        -0.065231
1643124132.0000    304152.900000      -142.725900    304094.300000        97.221440    303689.200000       -22.679080       425.754400      -132.297900       429.811200       108.515000       438.230000       -11.790080        59.964880        -0.040054
1643124133.0000    304166.300000      -155.920500    304093.500000        84.023610    303709.900000       -35.873130       425.790000      -145.526500       429.710200        95.247580       438.629400       -24.987420        59.962830         0.024490
1643124134.0000    304256.100000      -169.765600    304212.300000        70.175990    303802.200000       -49.719520       426.336200      -159.368600       429.396900        81.446300       438.000200       -38.796260        59.960380        -0.037079
1643124135.0000    304355.100000       176.253300    304259.100000        56.197930    303887.000000       -63.696180       426.153500      -173.284800       429.353100        67.472160       437.415800       -52.830590        59.960170         0.015335
1643124136.0000    304361.500000       161.485700    304296.300000        41.436700    303916.400000       -78.461680       426.066300       171.829800       429.211400        52.657930       438.099000       -67.662350        59.959410        -0.007095
1643124137.0000    304491.000000       147.588300    304444.900000        27.532630    304047.500000       -92.363580       425.923000       157.964200       429.907000        38.765110       438.509500       -81.579660        59.962760        -0.013962
1643124138.0000    304425.800000       134.546800    304367.900000        14.497330    303989.900000      -105.405400       426.176100       144.919300       429.920700        25.774080       438.144600       -94.528780        59.963960         0.037079
1643124139.0000    304410.200000       121.635100    304385.400000         1.583002    303987.500000      -118.318400       426.611700       131.991500       429.414500        12.839160       438.646600      -107.496000        59.965400         0.012360
1643124140.0000    304366.800000       109.272400    304304.200000       -10.773400    303939.700000      -130.674900       426.312900       119.634100       430.554700         0.476096       438.658300      -119.821700        59.966700         0.019455
1643124141.0000    304386.600000        97.111070    304317.700000       -22.940050    303962.400000      -142.841600       426.073900       107.490200       429.729200       -11.690380       438.256700      -131.958900        59.966150        -0.045547
1643124142.0000    304374.100000        85.553060    304343.700000       -34.498100    303948.500000      -154.402500       426.385700        95.874870       430.155400       -23.300110       438.571900      -143.554500        59.968820         0.028381
1643124143.0000    304408.100000        74.173580    304370.400000       -45.875000    303979.000000      -165.778800       426.874200        84.489270       430.262400       -34.725590       438.481800      -154.949300        59.969220        -0.002518
1643124144.0000    304388.900000        63.584250    304367.500000       -56.463810    303999.800000      -176.364200       427.120400        73.897180       430.071200       -45.230670       438.884600      -165.575900        59.971230        -0.016708
1643124145.0000    304350.800000        53.814630    304311.200000       -66.234500    303935.900000       173.864300       426.906100        64.144630       430.020500       -55.055790       438.518300      -175.290200        59.972970        -0.016937
1643124146.0000    304389.500000        44.077880    304364.100000       -75.964820    304000.300000       164.125100       426.928900        54.388770       430.325300       -64.777710       438.877800       174.962300        59.972840        -0.022659
1643124147.0000    304428.000000        34.689750    304389.900000       -85.359110    304014.400000       154.739300       426.185400        44.999340       429.892000       -74.157960       438.575200       165.554600        59.974400        -0.025177
1643124148.0000    304321.300000        25.131970    304288.000000       -94.915720    303919.100000       145.178600       426.864400        35.445060       429.918700       -83.665720       438.760700       156.019700        59.973210         0.006866
1643124149.0000    304483.500000        15.859590    304417.900000      -104.189300    304063.400000       135.911100       426.638300        26.098550       430.429300       -93.027930       439.042700       146.647700        59.976130         0.000458
1643124150.0000    304596.400000         7.359373    304530.000000      -112.688200    304163.300000       127.414400       426.180500        17.657630       429.834100      -101.472300       438.257800       138.229300        59.977270        -0.014877
1643124151.0000    304559.100000        -0.391621    304507.900000      -120.443200    304122.400000       119.659400       427.053000         9.954186       430.173300      -109.254200       438.581100       130.414300        59.980520         0.004120
1643124152.0000    304462.700000        -7.039035    304407.000000      -127.094100    304026.000000       113.012600       426.511600         3.227022       429.678200      -115.837700       437.704700       123.811200        59.981240        -0.009384
1643124153.0000    304498.400000       -13.629890    304446.000000      -133.683700    304064.300000       106.418700       426.453400        -3.272342       430.188800      -122.452100       438.846300       117.307800        59.983010         0.020370
1643124154.0000    304554.700000       -19.700570    304488.000000      -139.749500    304124.600000       100.351900       426.399200        -9.423190       429.943200      -128.539600       438.628800       111.147400        59.983590         0.004349
1643124155.0000    304647.300000       -24.755040    304571.200000      -144.814900    304179.300000        95.296370       426.820200       -14.448440       430.334200      -133.587100       438.703500       106.148900        59.987550         0.021515
1643124156.0000    304457.400000       -29.018290    304390.800000      -149.070800    304023.800000        91.031730       427.141000       -18.660500       430.258700      -137.844400       438.885400       101.794800        59.987850        -0.037994
1643124157.0000    304490.100000       -32.702500    304441.100000      -152.749400    304056.200000        87.351810       426.506400       -22.338130       430.047100      -141.582000       438.376200        98.206360        59.991370         0.051270
1643124158.0000    304486.000000       -36.311650    304431.100000      -156.363400    304041.400000        83.736280       426.815300       -25.929520       430.430800      -145.087100       439.073500        94.598470        59.990120        -0.010986
1643124159.0000    304650.800000       -39.002610    304602.700000      -159.048900    304202.900000        81.050220       426.857600       -28.667200       429.859700      -147.807000       438.299000        91.915840        59.995240         0.004349
1643124160.0000    304683.400000       -40.446860    304607.300000      -160.500800    304220.900000        79.600880       426.668900       -30.098920       430.188500      -149.220800       438.774800        90.473300        59.996160        -0.028152
1643124161.0000    304744.000000       -41.581050    304679.700000      -161.630400    304313.600000        78.466750       426.469100       -31.163200       429.912000      -150.393200       438.555500        89.340390        59.997790         0.026550
1643124162.0000    304800.700000       -42.000070    304748.500000      -162.046200    304388.300000        78.049870       425.979800       -31.714210       429.675100      -150.798800       438.649900        88.912520        59.999710        -0.030899
1643124163.0000    304799.300000       -41.978300    304734.300000      -162.029100    304345.600000        78.071980       426.338200       -31.605330       429.703900      -150.725800       438.203900        88.970570        60.001270         0.010071
1643124164.0000    304685.600000       -41.904510    304616.900000      -161.951100    304253.500000        78.146990       426.337600       -31.562300       429.783400      -150.686400       438.500200        88.978970        59.997680        -0.096359
1643124165.0000    304689.000000       -42.353740    304590.100000      -162.408100    304213.800000        77.698450       427.048100       -32.021370       430.071500      -151.240800       439.279800        88.531890        59.998630         0.010300
1643124166.0000    304607.900000       -42.388580    304561.800000      -162.444400    304163.900000        77.658990       427.371800       -32.096780       430.215400      -151.256500       439.033300        88.445720        60.000820         0.069351
1643124167.0000    304612.700000       -43.166160    304515.800000      -163.211600    304179.900000        76.889270       426.791000       -32.840930       429.819400      -151.957900       438.983400        87.741720        59.994850        -0.016022
1643124168.0000    304683.200000       -45.069400    304609.300000      -165.119900    304238.000000        74.982140       426.674500       -34.795390       430.139600      -153.890000       438.880000        85.795330        59.993340        -0.023346
1643124169.0000    304777.800000       -46.914960    304736.200000      -166.966900    304340.600000        73.133190       426.462100       -36.582410       429.884700      -155.723800       438.038500        83.959100        59.995260         0.019226
1643124170.0000    304634.200000       -49.421100    304585.800000      -169.466800    304212.900000        70.631450       426.630000       -39.081010       429.729200      -158.291600       438.473500        81.489220        59.991390        -0.039139
1643124171.0000    304684.400000       -52.551850    304628.300000      -172.597000    304264.300000        67.504600       426.238900       -42.221680       429.862200      -161.378700       438.230600        78.355180        59.990370        -0.019684
1643124172.0000    304621.700000       -56.358330    304517.500000      -176.403200    304178.300000        63.699300       426.212900       -46.012800       429.762800      -165.178100       438.142800        74.540150        59.987340        -0.020599
1643124173.0000    304523.500000       -61.208190    304481.900000       178.741300    304100.200000        58.842590       426.581500       -50.818620       430.182700      -169.961900       438.558500        69.655640        59.984570        -0.040970
1643124174.0000    304525.600000       -66.766690    304429.900000       173.182700    304072.900000        53.286010       426.339500       -56.409610       429.760300      -175.559900       438.662000        64.166500        59.982940         0.002975
1643124175.0000    304539.900000       -73.600290    304476.400000       166.351800    304096.800000        46.452120       426.276500       -63.190870       429.702100       177.620800       438.379100        57.381610        59.979580         0.015335
1643124176.0000    304616.900000       -81.158090    304578.500000       158.797800    304189.400000        38.893010       426.678700       -70.860080       430.269700       169.964200       438.527300        49.726050        59.979420         0.001144
1643124177.0000    304707.700000       -89.198150    304664.200000       150.752100    304269.500000        30.851770       425.940900       -78.822440       429.801200       161.982400       438.128900        41.678060        59.977810         0.002518
1643124178.0000    304742.700000       -97.075420    304689.900000       142.879400    304300.600000        22.979930       426.170000       -86.790410       429.937200       154.051100       438.408100        33.786900        59.978990         0.011444
1643124179.0000    304560.700000      -105.377100    304536.300000       134.575300    304132.700000        14.669620       426.055600       -95.015740       429.644200       145.795300       438.086700        25.532560        59.974720        -0.008926
