Terminal: LT 500  MUTUM - RIO NOVO SUL C1
Tensão base: 500 kV
SOC inicial: 1643124120
SOC final: 1643124179
Taxa: 1 fasores/s
Total de frames faltantes: - 

Tempo_(SOC)           VA_mod_(V)     VA_ang_(graus)     VB_mod_(V)     VB_ang_(graus)     VC_mod_(V)     VC_ang_(graus)     IA_mod_(A)     IA_ang_(graus)     IB_mod_(A)     IB_ang_(graus)     IC_mod_(A)     IC_ang_(graus)     Frequência        Delta_Freq     Faltante
1643124120.0000    306694.700000       -76.300070    306041.600000       163.848600    305843.600000        43.890670       227.754700        -6.870449       237.690900      -128.380800       222.809000       111.883300        59.973900        -0.033417
1643124121.0000    306642.900000       -85.337850    306030.900000       154.813100    305844.300000        34.842320       227.911200       -16.114650       238.272200      -137.416800       222.154400       102.801500        59.973210        -0.032730
1643124122.0000    306620.000000       -94.859730    305972.300000       145.284000    305779.800000        25.329660       227.820100       -25.517490       237.142300      -147.123600       222.561800        93.215870        59.973740         0.018082
1643124123.0000    306236.900000      -104.971500    305631.100000       135.169700    305413.200000        15.206290       227.162900       -35.931730       237.838500      -157.286400       222.239500        82.962970        59.971250        -0.022430
1643124124.0000    306330.700000      -115.238900    305722.500000       124.904700    305502.500000         4.940711       227.550000       -46.735860       237.452900      -167.859700       223.532900        72.542620        59.971340         0.007095
1643124125.0000    306065.400000      -125.898200    305418.500000       114.265600    305325.500000        -5.703884       229.852900       -56.762990       239.980600      -178.134000       224.734900        61.986900        59.968730        -0.035934
1643124126.0000    306383.300000      -136.979100    305726.100000       103.167100    305550.800000       -16.795820       229.266400       -67.999660       238.403200       170.443500       223.308000        50.724880        59.968060         0.003433
1643124127.0000    306385.900000      -148.597200    305719.900000        91.557660    305581.700000       -28.407630       228.997000       -79.647680       239.108000       158.701600       224.614600        38.750370        59.967740         0.013733
1643124128.0000    306460.600000      -159.886200    305784.900000        80.273800    305682.300000       -39.691810       229.025000       -91.055490       239.074200       147.390900       223.955200        27.352380        59.970290         0.043945
1643124129.0000    306505.300000      -171.205900    305845.600000        68.934560    305630.400000       -51.023180       230.863600      -102.456100       240.047400       136.204500       224.721400        16.360460        59.969020        -0.000229
1643124130.0000    306458.300000       177.421600    305864.600000        57.571240    305676.600000       -62.399540       228.329400      -113.406000       237.719000       125.280800       223.071800         5.277907        59.967940         0.023575
1643124131.0000    306468.200000       165.939000    305826.800000        46.086610    305637.800000       -73.877970       228.500100      -124.658100       238.884900       114.131900       223.877200        -5.509401        59.966310        -0.012817
1643124132.0000    306171.000000       153.782100    305556.000000        33.935550    305375.600000       -86.029420       231.318600      -137.358200       240.801300       101.346800       226.722300       -18.364440        59.964610        -0.018311
1643124133.0000    306558.600000       140.697600    305967.500000        20.852480    305800.900000       -99.122180       227.973500      -149.991200       238.442000        88.520740       222.101500       -31.320430        59.962940         0.006638
1643124134.0000    306538.700000       127.084900    305921.700000         7.234860    305727.300000      -112.732900       227.596600      -163.530700       236.905600        75.103160       221.903800       -44.810420        59.962040        -0.022659
1643124135.0000    306432.800000       112.842800    305794.500000        -7.009399    305605.800000      -126.970400       227.873700      -177.545600       238.033200        60.861570       223.168700       -58.917380        59.959310        -0.013046
1643124136.0000    306667.900000        98.372730    306037.700000       -21.474780    305882.600000      -141.440800       227.740900       167.402100       237.504000        46.259270       222.270700       -73.600100        59.960450        -0.020370
1643124137.0000    306528.800000        84.403590    305888.100000       -35.456750    305687.900000      -155.417200       229.538800       153.170900       239.625200        31.940510       224.340900       -88.186490        59.962810         0.044174
1643124138.0000    306522.000000        71.043370    305902.800000       -48.809700    305700.500000      -168.773400       231.671100       139.610900       240.963700        17.938460       226.690400      -101.729500        59.962750         0.002975
1643124139.0000    306406.600000        58.242680    305797.200000       -61.606280    305634.600000       178.423500       230.117600       126.409900       239.324200         5.138357       224.834500      -114.655900        59.966510         0.054474
1643124140.0000    306302.400000        45.597160    305664.900000       -74.258770    305495.400000       165.778800       231.909900       113.007800       241.422000        -7.907866       227.252200      -128.039700        59.964350        -0.002747
1643124141.0000    306236.500000        33.573680    305642.300000       -86.278080    305458.800000       153.753800       232.411200       101.409700       242.154200       -19.778550       226.877300      -139.705000        59.969820         0.176926
1643124142.0000    306232.600000        21.833800    305617.500000       -98.015630    305485.100000       142.011100       232.801600        89.247040       243.348000       -31.999240       226.894700      -152.086600        59.965260        -0.060883
1643124143.0000    306151.300000        10.672280    305523.000000      -109.169900    305419.900000       130.857800       233.000200        78.467290       244.053300       -42.981990       228.462300      -163.065800        59.969530        -0.071640
1643124144.0000    306304.300000         0.251879    305674.600000      -119.597500    305507.700000       120.436600       232.267800        68.351070       241.882300       -53.369710       227.206100      -173.029800        59.971080        -0.003662          *
1643124145.0000    306387.500000        -9.895825    305731.100000      -129.747700    305569.800000       110.290600       232.726800        58.592640       241.798700       -63.038400       227.581200       177.530600        59.972890        -0.063858
1643124146.0000    306347.300000       -19.589020    305658.700000      -139.433200    305541.000000       100.606500       231.930500        49.228410       242.502300       -72.459720       226.789600       167.773600        59.974960         0.043030
1643124147.0000    306177.800000       -29.068610    305571.100000      -148.922100    305367.800000        91.113620       232.493900        39.398390       240.959800       -82.252070       228.236600       158.387300        59.973010        -0.029984
1643124148.0000    306302.500000       -38.550190    305641.200000      -158.404000    305496.800000        81.637360       231.538100        30.125270       240.969800       -91.068000       226.945200       149.315000        59.975610         0.063400
1643124149.0000    306405.100000       -47.524260    305757.100000      -167.378900    305597.500000        72.660030       232.416800        21.068420       241.339600      -100.299100       226.915200       139.894200        59.976640         0.023117
1643124150.0000    306616.500000       -56.005170    305918.300000      -175.858800    305779.200000        64.188440       231.701800        12.628430       241.633600      -108.874800       226.262900       130.967300        59.979190         0.032730
1643124151.0000    306395.300000       -63.640980    305804.600000       176.509600    305636.000000        56.539070       232.327500         4.299962       241.674000      -117.307500       226.859300       123.089300        59.980580         0.022202
1643124152.0000    306318.600000       -70.602370    305689.900000       169.542900    305505.000000        49.576760       232.757200        -2.648345       243.077000      -124.295300       227.992900       116.134100        59.981720         0.001831
1643124153.0000    306297.000000       -77.058530    305708.500000       163.084300    305513.300000        43.118210       231.955100        -9.457248       242.319400      -130.942400       227.099800       109.520800        59.982730         0.013962
1643124154.0000    306606.800000       -82.925350    306017.500000       157.213300    305795.900000        37.249660       231.532800       -15.422730       240.128800      -136.686600       224.386600       103.473500        59.985310        -0.002289
1643124155.0000    306529.800000       -87.946080    305892.300000       152.195800    305702.900000        32.237100       230.689100       -20.257460       240.447400      -141.588300       226.006500        98.195890        59.986550         0.051270
1643124156.0000    306477.900000       -92.333600    305911.400000       147.808400    305690.400000        27.842170       231.427100       -24.824910       240.673500      -146.022900       225.363300        94.136930        59.989190         0.014420
1643124157.0000    306525.600000       -96.146580    305916.800000       143.995700    305731.700000        24.032690       232.003300       -28.849680       240.843900      -149.886700       226.123100        90.461580        59.989420         0.030441
1643124158.0000    306970.400000       -99.383080    306357.200000       140.763900    306166.100000        20.797600       229.625600       -30.964990       239.824400      -152.265700       224.424800        87.828510        59.992280        -0.007782
1643124159.0000    306793.300000      -101.926300    306258.900000       138.223800    306057.700000        18.246100       230.725200       -33.657610       239.838100      -155.061300       225.470100        85.106990        59.993870         0.013962
1643124160.0000    306711.300000      -103.627000    306135.500000       136.512200    305896.700000        16.549720       230.599600       -35.486330       239.466600      -156.822400       224.390200        83.469200        59.995940        -0.005722
1643124161.0000    306922.600000      -104.573800    306342.300000       135.569800    306132.500000        15.603390       229.732500       -36.661570       238.777200      -158.024500       224.494100        82.077640        59.997920         0.002747
1643124162.0000    306928.800000      -105.050500    306316.200000       135.087900    306081.100000        15.122280       231.597600       -37.714660       239.456600      -158.941400       225.676400        81.335540        59.999340        -0.024719
1643124163.0000    306877.200000      -105.011000    306265.800000       135.133500    306076.300000        15.169440       230.911000       -37.535130       240.644000      -158.651400       224.729600        81.437160        59.999410        -0.000687
1643124164.0000    306920.200000      -105.051100    306331.500000       135.091600    306113.600000        15.129770       229.735200       -37.193580       240.655600      -158.563600       224.744000        81.548670        59.999230        -0.018539
1643124165.0000    306914.200000      -105.149400    306296.700000       134.990900    306089.300000        15.028300       227.801900       -36.714160       237.412500      -157.958100       223.228100        82.204120        59.999310         0.039597
1643124166.0000    306882.500000      -105.405600    306235.200000       134.728800    305974.800000        14.777520       229.732000       -36.808490       239.026400      -158.140100       224.314900        82.381130        59.997710         0.001373
1643124167.0000    307016.700000      -106.221400    306352.200000       133.909100    306087.900000        13.959370       229.729600       -37.516570       238.974900      -158.625200       225.257300        81.445530        59.998630         0.027466
1643124168.0000    306942.000000      -107.674000    306310.100000       132.474400    306101.100000        12.511940       226.352900       -38.232680       237.099800      -159.545200       221.692100        80.613240        59.995190        -0.021744
1643124169.0000    306947.900000      -109.569700    306335.300000       130.582900    306115.800000        10.618280       228.641900       -39.867990       237.446200      -160.993300       222.556500        78.877250        59.994030        -0.013275
1643124170.0000    306969.900000      -112.146700    306337.700000       127.997400    306094.900000         8.037161       226.218500       -41.833820       236.039100      -163.593600       222.435300        76.837810        59.991990         0.032730
1643124171.0000    306892.100000      -115.216700    306268.100000       124.930000    306066.100000         4.967646       225.955900       -45.068590       236.752400      -166.447600       221.472500        73.785320        59.988420        -0.106430
1643124172.0000    306830.400000      -119.144000    306210.700000       120.999800    305983.700000         1.037485       227.383500       -49.083070       236.703100      -170.603000       223.180900        69.566630        59.987990        -0.029068
1643124173.0000    306867.400000      -123.885700    306253.900000       116.252800    306003.800000        -3.704161       226.651800       -54.105280       236.297800      -175.251100       221.950800        64.929260        59.985600         0.001602
1643124174.0000    306835.000000      -129.564200    306227.400000       110.582800    306001.200000        -9.382159       227.855000       -60.182270       237.240400       178.574900       222.777800        58.409700        59.981400        -0.056305
1643124175.0000    306904.800000      -136.285600    306262.000000       103.858600    306074.400000       -16.100200       228.094400       -66.946320       237.291300       171.733900       223.595400        51.932460        59.981700        -0.008926
1643124176.0000    307075.200000      -143.607100    306452.100000        96.536290    306198.300000       -23.424310       225.672600       -73.731410       234.881400       165.223700       220.883700        45.332200        59.980030         0.042801
1643124177.0000    307022.000000      -151.528700    306363.100000        88.616230    306162.800000       -31.338550       226.483800       -81.657880       235.467000       157.427900       220.685800        37.740740        59.978720         0.028152
1643124178.0000    307097.800000      -159.428400    306484.100000        80.719830    306265.100000       -39.244130       225.408800       -89.409290       234.687900       149.296600       220.631900        29.623500        59.977650        -0.006638
1643124179.0000    306993.100000      -168.179200    306382.400000        71.968680    306172.800000       -47.997600       226.580300       -98.412650       235.478500       140.215300       221.606800        20.193160        59.974570         0.021973
