Terminal: LT 500  BOM.JES.LAPA II - SOL DO SERTAO C1
Tensão base: 500 kV
SOC inicial: 1643124120
SOC final: 1643124179
Taxa: 1 fasores/s
Total de frames faltantes: - 

Tempo_(SOC)           VA_mod_(V)     VA_ang_(graus)     VB_mod_(V)     VB_ang_(graus)     VC_mod_(V)     VC_ang_(graus)     IA_mod_(A)     IA_ang_(graus)     IB_mod_(A)     IB_ang_(graus)     IC_mod_(A)     IC_ang_(graus)     Frequência        Delta_Freq     Faltante
1643124120.0000    306604.300000       -35.729760    306136.000000      -156.032900    305682.400000        83.973150       754.148300       139.088500       777.973600        18.595150       756.843900      -101.881300        59.974250        -0.036163
1643124121.0000    306579.500000       -44.753710    306135.700000      -165.052900    305674.200000        74.948790       755.213600       130.116200       778.423200         9.539696       757.324900      -110.904800        59.973290        -0.031815
1643124122.0000    306530.800000       -54.197990    306139.400000      -174.501800    305630.700000        65.497230       755.366500       120.710600       778.901700         0.130651       758.207000      -120.290800        59.973920         0.056992
1643124123.0000    306524.800000       -64.187920    306103.600000       175.504900    305624.600000        55.509810       756.243700       110.612200       779.990100        -9.880437       757.953200      -130.269600        59.972520         0.043945
1643124124.0000    306561.300000       -74.523270    306143.400000       165.175200    305663.000000        45.178540       755.917400       100.276900       779.130700       -20.179690       757.111300      -140.673600        59.970900        -0.023575
1643124125.0000    306521.400000       -85.155650    306112.800000       154.545400    305652.900000        34.541280       754.645300        89.671130       779.249000       -30.880150       756.720200      -151.304300        59.969730         0.009613
1643124126.0000    306519.800000       -96.305170    306091.300000       143.391400    305600.500000        23.395360       755.094700        78.459600       778.691400       -42.084040       757.363000      -162.466200        59.968340        -0.004807
1643124127.0000    306532.500000      -107.878500    306110.300000       131.819500    305635.700000        11.821560       755.746000        66.964580       778.455100       -53.595130       757.916300      -174.075000        59.966950        -0.006866
1643124128.0000    306626.500000      -119.291000    306193.500000       120.409600    305731.200000         0.411887       752.611300        55.415420       776.653100       -65.121190       754.613900       174.426100        59.971310         0.116501
1643124129.0000    306506.400000      -130.456600    306090.900000       109.237000    305599.800000       -10.756860       755.997600        44.329250       779.304900       -76.153190       756.914700       163.301200        59.969060         0.005264
1643124130.0000    306550.300000      -141.945200    306140.000000        97.752330    305643.500000       -22.246930       755.265300        32.916480       778.628500       -87.603290       756.551400       151.870200        59.967800         0.015335
1643124131.0000    306467.800000      -153.435500    306066.200000        86.257560    305536.400000       -33.739630       756.139900        21.428410       779.346900       -99.150720       756.568800       140.433400        59.965900        -0.086975
1643124132.0000    306463.400000      -165.512900    306041.800000        74.186280    305571.300000       -45.810730       757.175000         9.334169       780.325100      -111.186100       758.729000       128.376400        59.965930         0.006180
1643124133.0000    306483.400000      -178.626500    306031.000000        61.065630    305552.100000       -58.924770       757.596500        -3.843540       780.238300      -124.210400       758.570200       115.172400        59.963450         0.035477
1643124134.0000    306518.800000       167.734200    306077.500000        47.425740    305568.600000       -72.565390       755.632100       -17.343460       779.296800      -137.859200       757.098600       101.570800        59.962060         0.012589
1643124135.0000    306497.900000       153.577300    306061.400000        33.267900    305536.400000       -86.720180       756.621800       -31.569790       779.559100      -152.109800       758.065300        87.442340        59.959370         0.004120
1643124136.0000    306534.800000       138.983700    306098.900000        18.678550    305602.900000      -101.317400       754.828100       -46.231410       779.418700      -166.666500       757.133100        72.758910        59.959390        -0.018997
1643124137.0000    306518.800000       125.105300    306111.100000         4.800757    305616.100000      -115.197300       756.933700       -60.024930       781.274800       179.442600       758.974300        58.939830        59.962550         0.054474
1643124138.0000    306475.700000       111.852800    306049.500000        -8.449867    305549.000000      -128.446700       758.086700       -73.261200       782.577900       166.128700       760.149400        45.726140        59.963750         0.019913
1643124139.0000    306518.400000        98.966580    306110.100000       -21.331870    305624.000000      -141.332600       757.326100       -86.161270       781.122100       153.305700       758.559900        32.819450        59.965130         0.049210
1643124140.0000    306443.600000        86.545780    306047.800000       -33.752780    305538.900000      -153.751100       759.744800       -98.622380       782.516500       140.876000       761.393900        20.330620        59.965190        -0.001602
1643124141.0000    306485.900000        74.431060    306060.200000       -45.869110    305583.600000      -165.865400       759.078600      -110.758300       781.569800       128.779900       759.192300         8.307166        59.966630         0.042343
1643124142.0000    306423.300000        62.791220    306036.200000       -57.508630    305565.400000      -177.509100       760.337500      -122.441100       783.150000       117.126700       760.920600        -3.292396        59.968190         0.008011
1643124143.0000    306500.100000        51.571540    306060.600000       -68.727410    305606.800000       171.274700       758.173000      -133.568000       782.541400       105.886100       760.351300       -14.571670        59.971050         0.043945
1643124144.0000    306470.800000        41.011920    306043.800000       -79.281440    305628.900000       160.718800       758.532800      -144.179800       781.783900        95.233190       760.362700       -25.179460        59.972030         0.021286
1643124145.0000    306409.500000        31.065660    305969.200000       -89.232590    305542.200000       150.770600       760.552200      -154.125200       783.500600        85.404010       762.262500       -35.084250        59.969740        -0.151749
1643124146.0000    306457.900000        21.395040    306034.700000       -98.904810    305569.000000       141.099900       761.132200      -163.812600       783.579900        75.639010       761.658300       -44.738030        59.973120         0.000458
1643124147.0000    306450.700000        11.917920    306076.900000      -108.395600    305537.300000       131.606500       760.518500      -173.310800       784.157400        66.285010       762.136000       -54.215260        59.974890         0.078506
1643124148.0000    306480.700000         2.395410    306109.100000      -117.917300    305565.100000       122.080700       760.420800       177.163400       783.498700        56.692340       762.475000       -63.723430        59.975370         0.070724
1643124149.0000    306503.500000        -6.689234    306076.700000      -127.001900    305575.500000       113.003700       758.662400       168.100200       782.369800        47.610880       761.135700       -72.833620        59.975880         0.031128
1643124150.0000    306518.900000       -15.258650    306118.600000      -135.570500    305596.100000       104.430600       759.942400       159.629500       782.543300        39.056580       759.674100       -81.410640        59.976620        -0.015564
1643124151.0000    306576.600000       -22.888040    306173.200000      -143.209100    305621.500000        96.797200       757.598900       151.838200       780.967200        31.386870       758.532000       -89.091420        59.979870         0.023575
1643124152.0000    306529.600000       -29.723510    306083.800000      -150.044000    305543.100000        89.966560       758.074200       145.100400       782.077700        24.537560       760.322400       -95.860450        59.982410         0.031128
1643124153.0000    306548.100000       -36.208080    306118.500000      -156.523500    305598.000000        83.486060       757.735000       138.663800       780.578600        18.105700       758.742400      -102.348400        59.982630         0.023346
1643124154.0000    306609.500000       -42.264710    306201.600000      -162.583800    305651.600000        77.424260       757.385800       132.519900       780.514500        12.098770       759.109100      -108.393100        59.985280         0.050354
1643124155.0000    306607.300000       -47.282010    306192.200000      -167.597300    305670.900000        72.413870       757.380200       127.552300       782.477200         7.088887       759.529200      -113.395800        59.987950         0.079193
1643124156.0000    306554.700000       -51.576860    306169.800000      -171.892100    305599.800000        68.113550       758.422900       123.295100       782.262900         2.789582       760.073500      -117.627700        59.989010        -0.030441
1643124157.0000    306532.200000       -55.304890    306110.300000      -175.619000    305586.500000        64.389270       760.665000       119.660700       784.368800        -0.794067       761.195300      -121.230000        59.988860        -0.045776
1643124158.0000    306598.700000       -58.837390    306179.800000      -179.151900    305662.400000        60.857300       759.298000       116.200900       782.171100        -4.372478       761.964200      -124.805800        59.991500        -0.019684
1643124159.0000    306643.900000       -61.356410    306222.500000       178.329200    305687.300000        58.335500       758.356900       113.617400       781.782500        -6.837723       758.971900      -127.418100        59.992980        -0.032730
1643124160.0000    306594.900000       -62.946610    306149.000000       176.731300    305613.200000        56.748160       760.942300       112.080800       783.399100        -8.414749       760.856600      -128.914300        59.996750        -0.006638
1643124161.0000    306675.800000       -64.030300    306232.800000       175.652800    305701.800000        55.664940       759.120100       110.942000       782.168200        -9.503425       761.177700      -129.970100        59.998950         0.070953
1643124162.0000    306644.300000       -64.435090    306185.600000       175.242800    305647.300000        55.261890       759.909200       110.589100       783.746600        -9.955138       761.701700      -130.401900        59.998370        -0.063858
1643124163.0000    306607.000000       -64.433500    306176.500000       175.245600    305618.400000        55.260600       758.254200       110.583300       782.726500        -9.923229       760.527300      -130.299700        60.000000        -0.050583
1643124164.0000    306623.800000       -64.452730    306185.000000       175.224800    305632.800000        55.239190       758.974900       110.583800       782.334000        -9.955379       761.111000      -130.423800        60.000650         0.039597
1643124165.0000    306692.200000       -64.676350    306288.600000       175.004100    305724.200000        55.013080       755.451400       110.336400       778.850900       -10.159700       757.758700      -130.664500        60.002310         0.247650
1643124166.0000    306541.300000       -64.823030    306161.500000       174.867500    305632.800000        54.867290       758.354400       110.165500       781.093200       -10.287720       759.051000      -130.805100        60.003990         0.194321
1643124167.0000    306598.100000       -65.709790    306119.300000       173.985900    305660.300000        53.997360       759.022600       109.422600       782.629600       -11.180430       760.040800      -131.618300        59.997050         0.024719
1643124168.0000    306631.600000       -67.330180    306187.200000       172.369500    305734.300000        52.375750       755.092500       107.657700       778.952600       -12.803120       757.044000      -133.295900        59.996060         0.053329
1643124169.0000    306604.800000       -69.120850    306141.000000       170.575500    305670.900000        50.584140       757.452100       105.891800       779.768500       -14.594980       759.254300      -135.118300        59.994400         0.013046
1643124170.0000    306581.100000       -71.752680    306104.900000       167.948100    305696.100000        47.958450       757.117700       103.317900       780.686800       -17.275860       758.154100      -137.744100        59.990700        -0.074158
1643124171.0000    306605.300000       -74.842750    306161.200000       164.858400    305717.300000        44.861610       757.970600       100.186200       781.129300       -20.322160       758.966200      -140.831900        59.992160         0.066147
1643124172.0000    306582.800000       -78.706480    306105.100000       160.995600    305686.900000        41.005200       758.569000        96.292030       781.099100       -24.285470       759.408900      -144.624800        59.987680        -0.008926
1643124173.0000    306625.800000       -83.533480    306164.900000       156.166900    305733.500000        36.173620       755.539600        91.396240       778.912700       -29.084420       757.867600      -149.567900        59.986560         0.062943
1643124174.0000    306510.600000       -89.165700    306087.100000       150.531700    305633.300000        30.536320       756.628900        85.684040       778.164200       -34.767250       757.018000      -155.234200        59.982170        -0.084457
1643124175.0000    306624.000000       -95.934850    306171.900000       143.767000    305730.900000        23.771930       753.801500        78.896200       776.380900       -41.707070       755.079000      -162.122100        59.981360         0.106201
1643124176.0000    306621.800000      -103.436300    306158.800000       136.263500    305717.000000        16.269290       751.392100        71.330770       774.617600       -49.192180       753.332900      -169.656300        59.979280         0.002518
1643124177.0000    306643.800000      -111.442200    306235.600000       128.260100    305786.100000         8.262384       749.675200        63.316830       772.530000       -57.277120       750.678700      -177.735800        59.978920         0.085831
1643124178.0000    306625.300000      -119.313300    306195.600000       120.383200    305732.400000         0.392233       748.161800        55.413620       771.490400       -65.161700       750.543200       174.384100        59.978660         0.060425
1643124179.0000    306557.800000      -127.899700    306140.900000       111.803100    305685.900000        -8.195801       750.982200        46.740590       773.927200       -73.691860       751.733600       165.904800        59.974590         0.004807
