Terminal: LT 525  C.NOVOS - NOVA STA RITA C1
Tensão base: 525 kV
SOC inicial: 1643124120
SOC final: 1643124179
Taxa: 1 fasores/s
Total de frames faltantes: - 

Tempo_(SOC)           VA_mod_(V)     VA_ang_(graus)     VB_mod_(V)     VB_ang_(graus)     VC_mod_(V)     VC_ang_(graus)     IA_mod_(A)     IA_ang_(graus)     IB_mod_(A)     IB_ang_(graus)     IC_mod_(A)     IC_ang_(graus)     Frequência        Delta_Freq     Faltante
1643124120.0000    309452.400000      -128.953700    309838.600000       110.930900    310348.700000        -9.201281       640.881500      -112.901600       669.511800       124.934600       628.065300         3.756719        59.975150        -0.000916
1643124121.0000    309420.900000      -138.072100    309800.800000       101.821100    310349.800000       -18.314080       641.606100      -122.099200       672.731000       115.580900       628.609100        -5.667558        59.974120        -0.043945
1643124122.0000    309437.300000      -147.516400    309844.300000        92.375420    310375.300000       -27.766980       641.742200      -131.485200       672.443000       106.354300       629.981000       -14.978210        59.972950         0.024719
1643124123.0000    309404.100000      -157.430700    309827.200000        82.491270    310496.300000       -37.662490       641.031700      -141.389500       668.356300        96.416980       627.462300       -24.656600        59.972320         0.026093
1643124124.0000    309488.400000      -167.610000    309893.600000        72.295340    310492.100000       -47.844510       641.241500      -151.488100       670.005100        86.328130       628.520100       -34.851300        59.972260         0.052643
1643124125.0000    309456.300000      -178.330600    309853.200000        61.545930    310308.300000       -58.580700       640.278600      -162.148600       670.707600        75.647470       628.251100       -45.628530        59.971550         0.106659
1643124126.0000    309409.500000       170.428900    309846.700000        50.329520    310405.600000       -69.815290       641.281600      -173.481400       668.932500        64.308040       627.875200       -56.721360        59.968190        -0.000458
1643124127.0000    309337.800000       158.777700    309732.400000        38.693210    310377.900000       -81.451230       641.659500       174.721900       670.451200        52.579680       628.926600       -68.615680        59.967360         0.021286
1643124128.0000    309465.300000       147.640500    309898.300000        27.527910    310401.000000       -92.606000       640.785300       163.793200       670.779200        41.640840       629.293900       -79.642380        59.969050         0.011444
1643124129.0000    309460.300000       136.048600    309860.200000        15.928390    310322.500000      -104.199900       642.175100       152.201200       672.052600        29.937780       629.268100       -91.306110        59.968300         0.010300
1643124130.0000    309533.700000       124.802400    309914.600000         4.710326    310526.200000      -115.432300       642.590900       140.850300       671.425600        18.613940       629.356600      -102.529000        59.969180         0.041656
1643124131.0000    309304.000000       113.143300    309691.300000        -6.974883    310193.300000      -127.100600       642.529100       129.139600       672.288300         6.771944       628.712500      -114.439800        59.966880         0.020370
1643124132.0000    309332.300000       100.837500    309788.800000       -19.288270    310221.500000      -139.421100       641.946700       116.830800       671.873000        -5.295632       630.169400      -126.571700        59.965900         0.014191
1643124133.0000    309335.100000        87.895910    309837.900000       -32.211530    310314.800000      -152.361900       643.095900       103.988700       672.043200       -18.248290       629.872300      -139.410400        59.961940        -0.094986
1643124134.0000    309350.800000        74.357640    309704.800000       -45.774320    310154.200000      -165.890200       642.364400        90.401340       672.918900       -31.924580       628.872200      -153.205600        59.961410        -0.020370
1643124135.0000    309486.000000        60.103730    309835.800000       -60.010940    310370.800000       179.862700       642.891700        76.215770       671.930500       -46.072070       629.396900      -167.251600        59.959940        -0.013275
1643124136.0000    309421.500000        45.602880    309851.800000       -74.499610    310413.100000       165.358000       642.810400        61.681340       672.570400       -60.532390       630.610600       178.268700        59.959140        -0.035019
1643124137.0000    309480.500000        31.543780    309829.900000       -88.563420    310398.100000       151.308700       642.797900        47.660010       672.200500       -74.582880       630.334000       164.229600        59.962090         0.021515
1643124138.0000    309552.400000        18.098700    309921.200000      -101.996200    310534.500000       137.864800       642.986800        34.218250       672.983000       -88.014660       630.215300       150.749200        59.964360        -0.007782
1643124139.0000    309340.700000         5.366890    309788.000000      -114.758700    310216.700000       125.111100       641.969000        21.351190       672.588600      -100.833500       630.297700       137.880600        59.964710         0.008926
1643124140.0000    309410.100000        -7.229389    309856.100000      -127.322000    310430.100000       112.527800       642.804400         8.697397       671.531800      -113.454700       630.436200       125.365900        59.966320         0.039368
1643124141.0000    309400.600000       -19.265450    309764.000000      -139.372500    310304.200000       100.498900       641.951200        -3.150824       671.056600      -125.361500       628.961800       113.451200        59.967800         0.043030
1643124142.0000    309352.900000       -31.035700    309762.800000      -151.146700    310288.000000        88.721170       642.722500       -15.005940       670.456000      -137.283200       628.711200       101.659200        59.967330         0.025635
1643124143.0000    309403.800000       -42.170360    309854.600000      -162.262800    310432.000000        77.588420       641.981600       -26.205600       670.268300      -148.399200       628.793300        90.486620        59.969520         0.015106
1643124144.0000    309516.600000       -52.656950    309904.200000      -172.763600    310444.400000        67.106930       642.303900       -36.515570       671.844000      -158.826200       628.567000        79.970800        59.971390         0.001144
1643124145.0000    309421.600000       -62.837280    309780.800000       177.052400    310334.500000        56.925720       642.123800       -46.737400       673.601000      -169.086400       629.611200        69.594740        59.972030        -0.015106
1643124146.0000    309389.700000       -72.484060    309763.200000       167.417500    310368.900000        47.282040       642.507800       -56.449940       671.526900      -178.691600       629.431900        60.171180        59.974690         0.043030
1643124147.0000    309513.100000       -82.024430    309909.700000       157.868900    310440.100000        37.736430       641.344800       -65.770840       670.530300       171.984100       628.355800        50.807640        59.973020        -0.032501
1643124148.0000    309448.400000       -91.394590    309860.100000       148.494600    310357.700000        28.361550       641.489400       -75.220890       670.558600       162.595500       628.909100        41.339630        59.973590        -0.065918
1643124149.0000    309466.300000      -100.446000    309850.100000       139.437100    310358.100000        19.308460       641.167100       -84.211070       670.442500       153.565900       628.337800        32.310580        59.975510        -0.006409
1643124150.0000    309506.700000      -109.016600    309864.300000       130.866600    310376.300000        10.741790       641.843300       -92.850170       671.544000       144.937500       629.509700        23.691500        59.977360         0.008698
1643124151.0000    309341.600000      -116.558200    309741.200000       123.348700    310357.800000         3.206435       643.234100      -100.729500       671.576200       137.045200       629.897300        15.957070        59.980180         0.015335
1643124152.0000    309476.900000      -123.492100    309888.100000       116.410200    310460.800000        -3.730556       643.226200      -107.482600       672.320400       130.287400       630.175800         9.153452        59.981380        -0.017853
1643124153.0000    309497.300000      -129.907500    309960.000000       109.986200    310462.200000       -10.157050       641.561300      -113.679400       671.140600       124.107800       628.873700         2.914688        59.983160         0.001831
1643124154.0000    309446.800000      -135.730600    309865.400000       104.147100    310329.300000       -15.982410       640.977100      -119.473700       670.511000       118.336600       628.515100        -2.878267        59.985560         0.019684
1643124155.0000    309398.300000      -140.890700    309830.200000        98.996930    310334.000000       -21.142130       642.970500      -124.946900       673.128200       112.919600       631.447600        -8.378206        59.988240         0.018539
1643124156.0000    309346.600000      -144.962900    309784.600000        94.941800    310364.800000       -25.207920       643.559600      -129.110700       672.111000       108.662100       630.248300       -12.460330        59.988340        -0.008011
1643124157.0000    309489.900000      -148.913700    309919.200000        90.979150    310433.200000       -29.160320       641.764300      -132.729400       672.054000       105.069600       629.713200       -16.190910        59.990850         0.033646
1643124158.0000    309470.300000      -152.348800    309882.300000        87.543570    310420.400000       -32.594630       641.133400      -136.093400       671.025000       101.656800       628.549400       -19.550220        59.992190         0.015335
1643124159.0000    309323.100000      -154.754200    309756.700000        85.147600    310337.100000       -34.997170       641.707400      -138.645400       671.114000        99.168720       629.604400       -22.068590        59.993930        -0.016251
1643124160.0000    309448.000000      -156.538900    309854.100000        83.350330    310378.800000       -36.781650       642.158600      -140.375600       671.364900        97.356320       629.040900       -23.815110        59.996750        -0.028839
1643124161.0000    309397.300000      -157.430700    309822.500000        82.463010    310359.900000       -37.676590       641.282500      -141.290300       670.781300        96.540390       628.890400       -24.693290        59.997090        -0.053101
1643124162.0000    309290.100000      -158.048300    309723.200000        81.839730    310222.800000       -38.295380       643.368500      -142.015900       672.656100        95.710110       630.072800       -25.431920        59.997460        -0.074615
1643124163.0000    309288.100000      -158.160600    309629.100000        81.728400    310207.400000       -38.395150       644.009900      -142.121700       672.486000        95.637480       630.168900       -25.483500        60.000200        -0.006866
1643124164.0000    309328.400000      -158.121700    309778.100000        81.762050    310254.600000       -38.377370       643.071200      -141.986300       672.346700        95.737910       630.128700       -25.402360        60.001030         0.003433
1643124165.0000    309369.200000      -158.093400    309833.100000        81.805210    310380.200000       -38.346230       640.953100      -141.786700       670.865700        95.959010       628.417100       -25.258410        59.999200        -0.001144
1643124166.0000    309267.900000      -158.540800    309576.700000        81.350070    310151.300000       -38.768460       641.297700      -142.449100       672.507000        95.138500       627.616300       -26.110180        59.997850        -0.005493
1643124167.0000    309209.100000      -159.512300    309735.800000        80.366290    310143.500000       -39.782000       639.434100      -143.456900       670.798400        94.380740       628.264400       -27.016220        59.998910         0.064545
1643124168.0000    309243.400000      -160.608900    309806.800000        79.268040    310193.200000       -40.883610       640.566800      -144.502900       671.645100        93.306190       629.173300       -28.021030        59.994930        -0.003662
1643124169.0000    309146.800000      -162.645600    309605.000000        77.274410    310245.200000       -42.880680       642.800400      -146.721000       670.144200        91.089360       629.279100       -29.961650        59.993270        -0.011444
1643124170.0000    309269.500000      -165.124600    309627.700000        74.766680    310179.100000       -45.361290       642.207700      -149.121900       672.268600        88.582410       628.971400       -32.630410        59.992170         0.030212
1643124171.0000    309346.500000      -168.346500    309788.700000        71.538270    310273.200000       -48.599350       639.405500      -152.005400       669.722200        85.798850       627.460800       -35.482030        59.990460         0.009155
1643124172.0000    309282.700000      -172.311300    309610.700000        67.572070    310134.200000       -52.550430       641.453300      -156.182500       671.715800        81.458590       628.093400       -39.748480        59.987820         0.014877
1643124173.0000    309342.700000      -177.027500    309797.200000        62.860860    310284.700000       -57.276590       638.785900      -160.630300       667.970800        77.181050       626.419400       -44.042590        59.986350        -0.003204
1643124174.0000    309232.200000       177.026000    309692.500000        56.896540    310126.800000       -63.241590       637.502300      -166.798400       669.214400        71.129270       627.539200       -50.329520        59.981910        -0.055847
1643124175.0000    309304.200000       170.416900    309740.000000        50.314370    310286.100000       -69.831090       639.314400      -173.275500       668.944300        64.553990       626.970900       -56.720310        59.980500        -0.020370
1643124176.0000    309335.100000       162.956300    309746.200000        42.855190    310312.700000       -77.287890       638.529800       179.421400       668.111100        57.218220       626.430100       -64.005170        59.978000        -0.005264
1643124177.0000    309303.700000       155.181900    309657.100000        35.060410    310137.000000       -85.062970       638.724500       171.349900       670.254500        49.028970       626.542100       -72.264640        59.977910        -0.044632
1643124178.0000    309259.400000       147.175900    309654.800000        27.064710    310168.800000       -93.068270       640.776600       163.370900       669.719500        41.116040       627.462800       -80.042200        59.977290         0.048523
1643124179.0000    309316.900000       138.399600    309765.600000        18.291820    310283.400000      -101.851900       638.739000       154.846000       668.367600        32.587390       626.146700       -88.619820        59.975440         0.009613
