Terminal: LT 500  ITUMBIARA - EMBORCACAO C1
Tensão base: 500 kV
SOC inicial: 1643124120
SOC final: 1643124179
Taxa: 1 fasores/s
Total de frames faltantes: - 

Tempo_(SOC)           VA_mod_(V)     VA_ang_(graus)     VB_mod_(V)     VB_ang_(graus)     VC_mod_(V)     VC_ang_(graus)     IA_mod_(A)     IA_ang_(graus)     IB_mod_(A)     IB_ang_(graus)     IC_mod_(A)     IC_ang_(graus)     Frequência        Delta_Freq     Faltante
1643124120.0000    311082.800000        58.554380    310769.800000       178.379900    311616.900000       -61.579060        31.949920        57.411650        41.625990       152.200700        53.357220       -77.121280        59.973690        -0.078416
1643124121.0000    311063.200000        49.472660    310769.600000       169.304800    311572.400000       -70.654180        30.828470        48.760160        40.582350       142.205700        52.410560       -86.331810        59.974570         0.020655
1643124122.0000    311064.000000        40.041910    310708.600000       159.870500    311558.800000       -80.096640        32.635990        39.541130        42.178190       134.013300        54.008700       -95.059650        59.973110        -0.056012
1643124123.0000    311103.800000        30.001900    310806.100000       149.833400    311613.200000       -90.124600        33.369350        28.340270        43.133670       123.763500        54.888210      -105.776600        59.971710        -0.153640
1643124124.0000    311109.800000        19.747390    310798.900000       139.577300    311616.600000      -100.385600        32.642640        18.228130        42.408050       113.680400        54.324840      -115.934900        59.970870        -0.054567
1643124125.0000    311054.800000         9.080324    310715.300000       128.910000    311540.500000      -111.053800        31.748410         7.560700        41.709400       101.391000        53.871680      -127.239900        59.969620         0.091889
1643124126.0000    311036.800000        -2.069203    310752.700000       117.757000    311564.600000      -122.197800        31.739770        -3.069716        41.769370        91.278690        53.704730      -137.729600        59.967770         0.015041
1643124127.0000    311091.400000       -13.682390    310749.700000       106.144200    311600.000000      -133.818300        30.008260       -15.388030        40.432440        77.951830        52.178260      -150.324300        59.967460         0.013859
1643124128.0000    311157.900000       -24.968270    310787.500000        94.864480    311629.300000      -145.108400        31.911990       -25.533340        41.800980        68.461570        53.593520      -160.174200        59.969270         0.011247
1643124129.0000    311034.100000       -36.323640    310733.600000        83.502430    311569.100000      -156.456300        29.212000       -38.789960        39.704900        54.587860        51.191990      -173.415100        59.966930         0.013396
1643124130.0000    311083.500000       -47.749680    310777.300000        72.085140    311566.100000      -167.876300        31.085290       -48.871460        40.701020        44.796140        52.876670       176.032700        59.969560         0.217002
1643124131.0000    310929.200000       -59.257550    310639.900000        60.575210    311430.200000      -179.385200        31.065080       -59.883300        40.816030        33.446160        52.827330       164.824600        59.966250        -0.201042
1643124132.0000    310932.400000       -71.473530    310619.900000        48.354690    311446.500000       168.393600        28.339680       -74.326030        38.890040        18.072920        50.677070       150.670500        59.964650        -0.114109
1643124133.0000    311017.800000       -84.503460    310726.300000        35.324670    311533.900000       155.366400        29.613770       -86.040400        39.816070         6.955837        51.375710       138.623000        59.962860        -0.018811
1643124134.0000    310972.400000       -98.074090    310687.800000        21.750940    311514.200000       141.798000        30.515920       -99.320210        40.432930        -6.069665        52.005040       125.655500        59.961990         0.035615
1643124135.0000    310976.300000      -112.333100    310657.000000         7.492609    311507.100000       127.533500        30.176720      -115.405500        40.924580       -21.184310        52.172450       110.436000        59.958500        -0.083393
1643124136.0000    311069.300000      -126.833000    310755.800000        -7.006673    311590.000000       113.032000        29.308710      -127.714200        39.216840       -35.586300        51.151660        96.686070        59.960620        -0.057805
1643124137.0000    310997.200000      -140.829900    310684.200000       -21.001500    311509.300000        99.037060        27.450130      -143.775300        38.161400       -51.257030        49.323500        81.196310        59.962240         0.031783
1643124138.0000    310950.800000      -154.183200    310639.800000       -34.352800    311454.900000        85.684520        26.666680      -157.053100        37.508300       -65.307370        48.574410        67.586060        59.963210         0.022584
1643124139.0000    311028.800000      -166.966400    310700.700000       -47.135360    311520.900000        72.899570        28.178360      -169.030100        38.326130       -76.692890        50.030020        55.467970        59.966780         0.270022
1643124140.0000    310969.100000      -179.492400    310633.800000       -59.661280    311457.700000        60.373940        28.317730       177.089500        39.149510       -89.879160        50.393790        42.531520        59.966460         0.060673
1643124141.0000    310939.700000       168.466900    310600.700000       -71.709320    311452.800000        48.330290        29.753330       166.053000        39.820530      -100.359400        51.455760        31.061740        59.967740         0.150444
1643124142.0000    310938.500000       156.717800    310584.800000       -83.453440    311428.400000        36.579570        28.214820       153.221800        38.790530      -113.987400        50.358260        18.407000        59.967530         0.016944
1643124143.0000    310991.500000       145.524000    310643.000000       -94.645650    311478.400000        25.387210        27.182510       142.099800        37.677310      -125.975500        49.050910         6.861367        59.970240         0.070519
1643124144.0000    310980.900000       135.008600    310599.100000      -105.167700    311484.400000        14.862680        27.561380       132.301100        37.985440      -135.791900        49.463780        -3.008052        59.970810        -0.080093
1643124145.0000    310928.700000       124.975700    310564.300000      -115.197200    311424.500000         4.832956        27.517580       121.297300        38.474790      -146.389800        49.391330       -13.553570        59.971420        -0.108763
1643124146.0000    310951.500000       115.305500    310555.500000      -124.870800    311436.400000        -4.843585        27.648500       112.490000        38.429440      -155.095200        49.794450       -22.481930        59.974010         0.029412
1643124147.0000    310939.800000       105.765300    310623.800000      -134.406100    311447.600000       -14.367500        27.543650       101.338900        38.335880      -166.105000        49.676970       -33.232890        59.974050         0.019220
1643124148.0000    310970.300000        96.292050    310636.100000      -143.882200    311490.300000       -23.845290        27.293420        92.862690        38.021160      -175.184200        49.204810       -42.152570        59.974920        -0.053038
1643124149.0000    310990.400000        87.241770    310682.600000      -152.931800    311514.400000       -32.891170        26.594160        84.141150        37.292680       175.645000        48.693110       -51.372840        59.975660         0.102410
1643124150.0000    311053.900000        78.714970    310712.200000      -161.459400    311568.600000       -41.421500        26.208780        77.279300        36.880140       168.336300        48.209030       -58.711050        59.977640         0.018636
1643124151.0000    311058.600000        71.161460    310757.100000      -169.009000    311569.000000       -48.969040        28.315300        69.315460        38.230150       161.551600        49.779870       -66.437510        59.981160         0.094998
1643124152.0000    310971.800000        64.229440    310678.700000      -175.941800    311501.200000       -55.898630        27.300790        61.148000        38.081400       153.436200        49.288110       -73.935490        59.981300        -0.072750
1643124153.0000    310964.400000        57.832610    310700.300000       177.664100    311487.100000       -62.289780        28.019360        55.981950        38.285660       148.326100        49.892990       -79.506420        59.982120        -0.089306
1643124154.0000    311060.200000        51.837960    310769.100000       171.661700    311610.500000       -68.293150        27.153070        51.083190        37.149250       142.394300        48.714830       -85.480090        59.984920        -0.118606
1643124155.0000    311077.100000        46.792620    310769.500000       166.619200    311603.800000       -73.340380        28.802680        45.399360        38.972110       138.155100        50.443380       -89.617870        59.986970         0.117068
1643124156.0000    311059.800000        42.501160    310766.100000       162.329700    311578.100000       -77.627840        29.015290        41.365220        39.043820       134.351700        50.851310       -93.890880        59.987720        -0.152220
1643124157.0000    311024.600000        38.712330    310705.100000       158.540200    311539.800000       -81.420660        29.267360        36.630490        39.649270       130.130200        51.201950       -98.098750        59.989480        -0.007053
1643124158.0000    311114.600000        35.247700    310806.200000       155.074500    311645.400000       -84.884740        28.130430        34.678100        38.230850       126.383200        49.829620      -101.368200        59.992310        -0.086881
1643124159.0000    311108.700000        32.810300    310832.700000       152.642700    311626.700000       -87.316340        30.664540        32.256990        39.957420       125.926700        51.783540      -103.053300        59.994300         0.057722
1643124160.0000    311041.800000        31.092880    310742.500000       150.918400    311585.500000       -89.035310        27.552720        28.811700        37.736790       120.958900        49.084810      -106.749600        59.996090        -0.052022
1643124161.0000    311103.400000        30.120400    310789.400000       149.948300    311618.700000       -90.010250        29.772240        29.510190        39.630430       122.841600        51.223500      -105.438600        59.996730        -0.128483
1643124162.0000    311040.700000        29.631360    310775.100000       149.458500    311591.500000       -90.495000        29.145860        28.729460        38.965430       122.089500        50.475860      -106.479000        59.998730        -0.162299
1643124163.0000    310964.300000        29.626900    310675.000000       149.452300    311500.900000       -90.501850        27.814690        29.338600        37.587830       120.521000        49.252640      -107.258400        59.999750        -0.017904
1643124164.0000    311049.900000        29.556840    310773.300000       149.379100    311608.200000       -90.572290        26.187580        27.764650        36.859710       118.724000        48.156340      -108.134100        59.999500        -0.168840
1643124165.0000    311081.000000        29.457900    310831.600000       149.288100    311629.500000       -90.665050        29.119700        28.681430        38.846260       121.738000        50.585620      -106.844600        60.000250         0.179870
1643124166.0000    310986.500000        29.188150    310656.000000       149.020800    311479.300000       -90.945260        26.477010        27.382540        37.065980       119.012000        48.431000      -108.222600        59.999550         0.159147
1643124167.0000    310993.700000        28.261840    310706.300000       148.080300    311563.600000       -91.870720        25.197070        26.700330        36.115700       116.945200        47.074790      -109.891000        59.996760        -0.069562
1643124168.0000    311147.300000        26.869990    310825.800000       146.695000    311680.300000       -93.265650        28.842150        27.438160        38.691200       119.353300        50.688110      -108.482900        59.996560        -0.002511
1643124169.0000    311054.500000        25.010840    310754.700000       144.837900    311596.300000       -95.122270        28.144770        24.195890        38.367890       115.989600        49.963990      -111.600700        59.994010         0.060710
1643124170.0000    311072.800000        22.433120    310749.000000       142.255400    311618.200000       -97.704770        28.423800        21.999160        38.697150       114.464200        50.211610      -113.596000        59.991630        -0.073738
1643124171.0000    311047.500000        19.283140    310734.100000       139.106700    311597.100000      -100.851200        28.398910        18.703540        38.493600       110.265200        50.225970      -117.404900        59.989240        -0.158942
1643124172.0000    311013.400000        15.378700    310699.000000       135.197800    311575.100000      -104.758800        27.755190        14.189620        37.892190       105.652200        49.585540      -121.511800        59.988410         0.004493
1643124173.0000    311040.400000        10.609760    310735.800000       130.436100    311566.400000      -109.522300        28.027770         9.476204        38.271600       101.641500        49.717610      -126.118600        59.985530        -0.056252
1643124174.0000    310947.300000         4.837301    310619.500000       124.662000    311475.100000      -115.299100        25.596610         3.570065        36.215440        93.936790        47.473370      -132.950300        59.981930        -0.065939
1643124175.0000    311022.300000        -1.849492    310718.800000       117.975400    311553.600000      -121.982800        25.396020        -3.103360        36.034340        86.731580        47.390880      -139.672000        59.980820        -0.069196
1643124176.0000    311023.300000        -9.328232    310715.500000       110.499400    311536.100000      -129.460300        24.953110       -10.362970        35.691430        79.551510        46.822720      -146.917500        59.980440        -0.003570
1643124177.0000    311138.800000       -17.207330    310781.500000       102.616200    311657.100000      -137.348400        28.099340       -16.831020        38.226410        74.379490        49.848840      -153.170200        59.979180         0.115752
1643124178.0000    311056.600000       -25.113210    310711.200000        94.714620    311557.600000      -145.251900        27.273260       -23.842710        37.134060        66.687120        48.585040      -161.011200        59.978500         0.182584
1643124179.0000    310981.700000       -33.806370    310663.600000        86.021150    311493.600000      -153.941800        25.992310       -34.428660        36.315000        55.709630        47.955460      -171.114600        59.973490        -0.025825
