Terminal: LT 500  BATEIAS - IBIUNA C2
Tensão base: 500 kV
SOC inicial: 1643124120
SOC final: 1643124179
Taxa: 1 fasores/s
Total de frames faltantes: - 

Tempo_(SOC)           VA_mod_(V)     VA_ang_(graus)     VB_mod_(V)     VB_ang_(graus)     VC_mod_(V)     VC_ang_(graus)     IA_mod_(A)     IA_ang_(graus)     IB_mod_(A)     IB_ang_(graus)     IC_mod_(A)     IC_ang_(graus)     Frequência        Delta_Freq     Faltante
1643124120.0000    310317.800000      -119.779800    311352.700000       119.974500    308531.200000        -0.064558       657.699600        77.263100       682.076000       -43.548280       663.409900      -164.081400        59.974650         0.116585
1643124121.0000    310311.600000      -128.898400    311567.400000       110.928900    308980.700000        -9.182293       658.663100        68.358310       680.537800       -52.285600       664.512100      -172.709700        59.974430        -0.066672
1643124122.0000    310305.300000      -138.354800    311444.800000       101.461000    308862.900000       -18.625640       657.538800        58.742560       678.622300       -61.763230       664.296600       177.826800        59.973680        -0.113261
1643124123.0000    310408.500000      -148.287800    311651.100000        91.536090    309051.600000       -28.573890       655.653800        48.820880       676.617900       -71.797070       661.357500       167.820100        59.973910         0.080781
1643124124.0000    310510.700000      -158.474900    311595.500000        81.348900    309080.800000       -38.733940       655.671800        38.673400       676.155400       -82.049010       659.606600       157.647900        59.971870        -0.059740
1643124125.0000    310241.300000      -169.189700    311365.500000        70.570890    308520.500000       -49.486420       656.657400        27.709170       680.111500       -93.041340       662.472500       146.473500        59.969810        -0.062956
1643124126.0000    310233.500000       179.578800    311482.900000        59.350110    308644.300000       -60.732100       657.187500        16.717860       680.610700      -104.061000       662.941200       135.442200        59.968450        -0.011197
1643124127.0000    310200.200000       167.936900    311219.300000        47.786780    308855.800000       -72.298420       661.743700         4.761277       679.788600      -115.870700       665.384600       123.984300        59.965350        -0.089439
1643124128.0000    310273.300000       156.782000    311338.300000        36.577190    308694.700000       -83.487600       656.309600        -6.205112       680.556300      -126.880600       662.893300       112.535700        59.969250        -0.142888
1643124129.0000    310237.000000       145.265200    311425.600000        25.030490    308578.900000       -95.040230       660.538900       -17.776040       684.551900      -138.468900       666.465100       100.962100        59.970460         0.194742
1643124130.0000    310597.000000       133.960100    311754.400000        13.792880    309238.500000      -106.305300       657.443900       -28.815830       678.357500      -149.538300       661.411400        90.135690        59.973200        -0.007860
1643124131.0000    310002.400000       122.332900    311261.100000         2.106614    308406.300000      -117.977500       657.164200       -40.579190       681.233200      -161.252800       663.464400        78.160600        59.967420        -0.054980
1643124132.0000    310086.800000       110.034000    311237.500000       -10.222310    308310.000000      -130.276900       657.387900       -52.807170       681.574900      -173.686400       662.078300        65.769090        59.964290         0.145731
1643124133.0000    309931.900000        97.103090    311365.800000       -23.110230    308489.100000      -143.232200       657.490100       -66.160640       680.755400       173.414200       666.453400        52.743050        59.961540        -0.371594
1643124134.0000    310069.800000        83.560240    311212.500000       -36.685270    308329.500000      -156.741000       657.534300       -79.284290       680.944900       159.772600       661.403200        39.399680        59.957890        -0.078443
1643124135.0000    310382.700000        69.286710    311526.400000       -50.933710    308768.700000      -171.004200       657.073500       -93.620520       679.259400       145.719400       662.671900        25.231600        59.957950        -0.164063
1643124136.0000    310307.500000        54.809900    311480.200000       -65.376520    308874.300000       174.531000       659.249000      -108.048700       679.963100       131.306900       664.123900        10.990350        59.959440        -0.038966
1643124137.0000    310153.700000        40.715420    311135.200000       -79.480450    308569.400000       160.464100       659.991300      -122.287000       682.051000       116.938900       664.443000        -3.414116        59.960480        -0.054493
1643124138.0000    310435.700000        27.296210    311563.700000       -92.862880    309100.000000       147.038900       660.427400      -135.506500       680.312000       103.758200       663.929800       -16.510510        59.965050        -0.025627
1643124139.0000    310075.300000        14.546230    311268.300000      -105.689100    308406.900000       134.240300       659.121100      -148.528200       682.546300        90.768020       665.089800       -29.759330        59.965040         0.122669
1643124140.0000    310289.000000         1.957771    311497.900000      -118.227500    308865.500000       121.673800       658.808700      -160.880500       680.683800        78.489170       665.136700       -41.923070        59.967340         0.153212
1643124141.0000    309941.900000       -10.102590    310974.900000      -130.309100    308322.900000       109.630200       661.687400      -173.296200       682.289200        65.914410       665.551100       -54.363190        59.967330         0.089628
1643124142.0000    310037.500000       -21.820540    311237.200000      -142.063500    308343.800000        97.867400       658.820300       174.956400       683.622900        54.392270       666.293000       -66.261570        59.968200         0.149137
1643124143.0000    310260.500000       -33.001700    311518.400000      -153.191200    308851.500000        86.704800       660.042500       163.988200       682.130800        43.377810       666.648700       -77.084760        59.971770         0.209970
1643124144.0000    310403.100000       -43.470340    311557.700000      -163.665900    308905.900000        76.249100       658.856000       153.638900       679.281600        33.054410       664.612000       -87.335720        59.970570        -0.003639
1643124145.0000    310057.300000       -53.654650    311191.700000      -173.817200    308717.600000        66.084240       660.703400       143.264900       680.223300        22.734430       665.973800       -97.569380        59.972260         0.059183
1643124146.0000    310047.600000       -63.325440    311096.900000       176.496900    308585.700000        56.418150       659.941700       133.669800       680.370300        13.160490       666.458900      -107.277000        59.975530         0.268674
1643124147.0000    310224.400000       -72.854690    311351.700000       166.937200    308660.900000        46.862820       659.890300       124.094300       681.088000         3.424626       665.223700      -116.965800        59.972810        -0.040167
1643124148.0000    310077.200000       -82.247950    311139.600000       157.535600    308443.300000        37.473850       656.977400       114.641500       678.663600        -5.955271       662.730000      -126.369200        59.972070        -0.356908
1643124149.0000    310119.300000       -91.290670    311204.100000       148.485600    308455.600000        28.424660       657.599200       105.646800       679.843600       -15.023470       662.536300      -135.464700        59.975490         0.048241
1643124150.0000    310259.600000       -99.820200    311243.600000       139.958400    308553.100000        19.915200       660.932300        97.113980       683.243500       -23.658170       665.742400      -144.096700        59.978290         0.206504
1643124151.0000    310221.200000      -107.350500    311363.300000       132.461900    308757.900000        12.373670       660.632900        89.517330       681.900900       -31.087800       666.235300      -151.494900        59.980270        -0.061704
1643124152.0000    310402.200000      -114.295300    311566.300000       125.515400    308945.500000         5.426013       658.417800        82.799260       679.517500       -37.831420       664.048400      -158.211300        59.982580        -0.142645
1643124153.0000    310202.500000      -120.728100    311517.700000       119.063800    308743.200000        -1.039523       657.734200        76.488630       680.960400       -44.224980       664.308000      -164.705200        59.985560         0.148920
1643124154.0000    310113.900000      -126.577500    311202.200000       113.174800    308333.800000        -6.873616       656.463200        70.278010       680.360700       -50.453530       662.111800      -170.987600        59.982980        -0.310176
1643124155.0000    310310.100000      -131.674500    311458.700000       108.117600    308737.800000       -11.961210       658.551900        65.321590       681.832400       -55.278640       665.198500      -175.776600        59.987690         0.153338
1643124156.0000    310298.800000      -135.813100    311613.400000       103.998500    308932.700000       -16.113910       653.885300        61.239050       675.671800       -59.342600       660.566100      -179.820400        59.988950         0.087681
1643124157.0000    310369.300000      -139.751800    311587.400000       100.056200    308914.300000       -20.037880       656.058700        57.245300       678.437300       -63.328110       662.743600       176.182800        59.992350         0.108011
1643124158.0000    310249.800000      -143.188400    311434.300000        96.620210    308790.400000       -23.471280       658.496200        53.773730       680.199900       -66.869080       664.423500       172.701600        59.991640        -0.019223
1643124159.0000    309849.400000      -145.605300    311005.300000        94.232440    308509.900000       -25.868480       658.730200        50.966120       678.852700       -69.787060       662.437300       169.970000        59.994220        -0.080780
1643124160.0000    310226.200000      -147.366700    311445.800000        92.418430    308653.600000       -27.668520       658.219600        49.465260       681.260600       -71.130770       664.103500       168.324100        59.996690         0.080999
1643124161.0000    310114.900000      -148.306600    311258.700000        91.495860    308604.300000       -28.586290       656.359900        48.610900       679.017800       -72.031940       662.109200       167.474700        59.996940        -0.273315
1643124162.0000    309851.400000      -148.849300    311104.400000        90.922490    308239.900000       -29.160360       656.636000        47.908740       681.652300       -72.781480       663.632000       166.559100        59.996590        -0.390599
1643124163.0000    309756.500000      -148.980900    310744.900000        90.792770    308038.200000       -29.248640       658.443100        47.876430       681.536900       -73.034190       661.791500       166.543300        59.999700        -0.154766
1643124164.0000    309814.300000      -148.928700    311161.800000        90.828390    308186.400000       -29.263640       655.872800        47.615150       678.937200       -72.887560       663.632200       166.519900        59.999520         0.042895
1643124165.0000    309813.300000      -148.950500    311213.700000        90.857950    308452.900000       -29.267310       656.159000        47.600960       677.060600       -72.820850       663.607600       166.686700        59.998490         0.025370
1643124166.0000    309838.200000      -149.409300    310888.500000        90.426360    308432.800000       -29.658050       659.022500        47.312700       680.093200       -73.359840       663.751500       166.335200        59.996000         0.051673
1643124167.0000    309704.400000      -150.351000    311087.800000        89.430840    308229.600000       -30.681430       658.243300        46.206840       680.974700       -74.288120       666.012100       165.155300        59.996710         0.052412
1643124168.0000    309793.400000      -151.469500    311317.300000        88.303190    308334.700000       -31.823960       654.931500        44.996590       678.517000       -75.364040       664.466400       163.912500        59.995140        -0.046010
1643124169.0000    309691.800000      -153.485400    310956.900000        86.348290    308386.700000       -33.768730       659.697700        42.965540       679.677900       -77.601790       664.821500       162.055300        59.992300        -0.053259
1643124170.0000    310086.100000      -155.984900    311169.500000        83.818820    308543.300000       -36.254520       657.168000        40.906160       678.401700       -79.816050       661.628500       159.877700        59.991310         0.197524
1643124171.0000    309918.700000      -159.217100    311119.500000        80.567520    308345.200000       -39.514630       658.259900        37.670910       680.971900       -83.081980       663.841700       156.479400        59.990180         0.066597
1643124172.0000    309952.400000      -163.166700    311018.800000        76.621830    308324.300000       -43.440790       660.346600        33.586650       681.689500       -87.195870       664.431300       152.478300        59.989380         0.195577
1643124173.0000    309888.100000      -167.919300    311052.100000        71.866540    308315.000000       -48.209770       657.668800        28.964580       681.077000       -91.793610       662.760300       147.719600        59.985590        -0.050015
1643124174.0000    309815.200000      -173.849900    310868.400000        65.922870    308116.700000       -54.130910       658.853300        23.010990       682.651700       -97.822650       664.201200       141.662800        59.981330        -0.104642
1643124175.0000    309828.900000       179.545300    311032.600000        59.360590    308405.900000       -60.737440       660.174700        16.402280       681.606100      -104.297600       665.050900       135.275500        59.980790        -0.043246
1643124176.0000    309725.900000       172.048700    310879.900000        51.879550    308350.600000       -68.217800       659.977900         8.971591       681.704500      -111.812000       664.453700       127.807600        59.978630        -0.045777
1643124177.0000    310032.100000       164.311200    311104.900000        44.107520    308455.700000       -75.961210       658.314700         1.134285       680.245900      -119.580200       663.808700       120.038500        59.977690         0.006952
1643124178.0000    309746.700000       156.296700    310873.800000        36.071990    308083.600000       -83.992250       657.916300        -6.946388       682.402500      -127.582300       664.986900       111.769700        59.979090         0.463264
1643124179.0000    309743.400000       147.515400    310997.000000        27.305130    308236.500000       -92.788960       659.389100       -15.650390       682.478000      -136.385800       664.892000       103.117700        59.974960        -0.134403
