Terminal: LT 500  ACARAU III - PARNAIBA III C1
Tensão base: 500 kV
SOC inicial: 1643124120
SOC final: 1643124179
Taxa: 1 fasores/s
Total de frames faltantes: - 

Tempo_(SOC)           VA_mod_(V)     VA_ang_(graus)     VB_mod_(V)     VB_ang_(graus)     VC_mod_(V)     VC_ang_(graus)     IA_mod_(A)     IA_ang_(graus)     IB_mod_(A)     IB_ang_(graus)     IC_mod_(A)     IC_ang_(graus)     Frequência        Delta_Freq     Faltante
1643124120.0000    311300.800000       -22.315730    312377.000000      -142.258700    311680.000000        97.572040        15.513560        95.257620        18.024260        -6.516659        19.734290      -138.680600        59.975320        -0.002747
1643124121.0000    311234.900000       -31.341620    312336.500000      -151.281500    311636.500000        88.542950        16.468030        84.201290        18.631020       -14.011080        20.631470      -148.498100        59.973060        -0.059052
1643124122.0000    311244.700000       -40.770330    312362.200000      -160.710000    311648.200000        79.112280        15.984750        76.863910        18.331990       -21.784040        20.493120      -155.725300        59.973580         0.008698
1643124123.0000    311256.700000       -50.749580    312408.100000      -170.701300    311645.800000        69.122630        16.203690        70.019330        18.824140       -33.035630        20.713940      -165.806400        59.971240         0.016479
1643124124.0000    311184.400000       -61.135020    312391.200000       178.917200    311600.200000        58.729000        16.743600        54.083600        18.182210       -48.409120        20.837950      -178.832700        59.971100        -0.016708
1643124125.0000    311227.700000       -71.710820    312227.700000       168.351900    311581.500000        48.189560        16.864180        44.268030        19.688090       -56.311510        21.103220       172.643700        59.969650        -0.022202
1643124126.0000    311240.600000       -82.869240    312296.900000       157.172100    311534.400000        37.013530        16.569710        35.491780        18.954370       -66.531140        21.220690       160.542300        59.968970         0.020828
1643124127.0000    311188.800000       -94.438240    312311.600000       145.609700    311546.900000        25.440400        16.514470        22.503090        18.597390       -78.047190        21.199930       147.922300        59.966460        -0.001144
1643124128.0000    311232.800000      -105.947800    312298.500000       134.089600    311499.100000        13.929530        16.488150         5.056967        18.465170       -93.808530        21.659340       133.519500        59.969200        -0.013504
1643124129.0000    311268.800000      -117.031200    312334.700000       123.006600    311529.200000         2.847775        16.299590        -3.518164        18.087670      -103.414300        20.623110       124.668400        59.969120        -0.010071
1643124130.0000    311208.200000      -128.510800    312278.700000       111.533700    311511.000000        -8.632796        16.785920       -13.893520        18.950830      -110.650100        21.144800       112.665800        59.966600        -0.035706
1643124131.0000    311170.100000      -140.004400    312320.700000       100.026100    311450.700000       -20.145180        16.561950       -25.045790        18.473220      -124.945000        21.169470       102.071900        59.968140        -0.011902
1643124132.0000    311161.700000      -152.001100    312322.800000        88.040510    311511.400000       -32.133130        16.535350       -33.046960        18.930480      -135.258600        21.405210        92.403820        59.965490         0.005951
1643124133.0000    311174.600000      -165.181300    312292.300000        74.868060    311529.100000       -45.302330        17.110630       -45.407760        19.008400      -146.906700        21.310480        78.597310        59.963050         0.053329
1643124134.0000    311147.800000      -178.887700    312239.200000        61.168020    311508.700000       -59.003760        17.607920       -64.409920        19.126020      -165.629700        21.973800        62.782530        59.962000         0.016022
1643124135.0000    311192.300000       167.024200    312250.400000        47.079200    311523.100000       -73.083500        16.784290       -75.795250        19.271940      -179.147300        21.266280        49.369490        59.959710        -0.017395
1643124136.0000    311203.800000       152.366200    312336.900000        32.425000    311627.600000       -87.754530        16.704530       -88.462780        18.853110       170.240900        20.758020        36.520340        59.960210         0.003433
1643124137.0000    311131.200000       138.552100    312311.900000        18.599650    311494.700000      -101.584100        16.841650      -108.034000        18.277790       150.270100        21.682470        18.618540        59.961880        -0.010986
1643124138.0000    311203.700000       125.367000    312272.500000         5.419218    311538.500000      -114.747200        16.657470      -119.290300        18.379350       138.719000        20.725870         7.574094        59.964310         0.009384
1643124139.0000    311246.300000       112.450200    312281.600000        -7.490886    311578.900000      -127.654700        15.841150      -130.341900        18.812460       125.711700        20.680530        -4.954921        59.964360        -0.026321
1643124140.0000    311167.500000       100.101500    312236.200000       -19.849410    311510.300000      -140.015100        16.550420      -143.693900        18.601590       114.011600        20.818530       -19.414350        59.965110        -0.027924
1643124141.0000    311115.500000        87.939250    312293.300000       -32.002960    311549.700000      -152.193600        16.426600      -157.241700        18.383750       102.036900        21.045050       -30.002950        59.966180        -0.071182
1643124142.0000    311252.100000        76.344960    312397.800000       -43.607320    311604.200000      -163.784100        15.802020      -166.335600        17.693330        91.489810        20.131420       -40.584380        59.968430         0.007782
1643124143.0000    311260.500000        65.049460    312309.900000       -54.906250    311529.500000      -175.062600        16.007520      -178.670100        18.696820        78.239730        20.797630       -53.091890        59.969610        -0.002289
1643124144.0000    311244.200000        54.497150    312334.600000       -65.447180    311612.300000       174.381900        16.155860       169.677400        18.022590        68.173000        20.510440       -64.271980        59.971710         0.031815
1643124145.0000    311223.300000        44.618330    312371.700000       -75.326470    311621.500000       164.491100        15.602710       162.262100        17.967420        63.579240        19.918280       -70.693860        59.971940        -0.083084
1643124146.0000    311264.800000        34.951400    312340.700000       -85.002890    311575.500000       154.833800        16.115870       148.559800        17.789540        52.405770        20.307780       -84.650040        59.973640        -0.004349
1643124147.0000    311206.300000        25.493380    312254.800000       -94.452740    311525.600000       145.381500        16.765260       141.138800        18.968200        39.859690        20.943760       -93.274510        59.974490         0.040970
1643124148.0000    311268.300000        15.955790    312341.000000      -104.002800    311567.300000       135.835800        16.088480       132.494200        17.933510        32.613750        20.386430      -101.544500        59.973550         0.001373
1643124149.0000    311272.600000         6.801365    312263.400000      -113.148000    311542.700000       126.698700        15.798610       117.937100        18.342060        18.059440        20.067740      -115.585000        59.975890        -0.005722
1643124150.0000    311192.400000        -1.741965    312321.800000      -121.699100    311524.800000       118.131900        16.647800       109.895300        18.357650        10.906190        20.700700      -122.887700        59.976500        -0.046692
1643124151.0000    311291.600000        -9.446024    312472.800000      -129.402000    311660.200000       110.417300        16.314190       104.057100        17.170630         7.210958        20.038790      -127.608900        59.980350        -0.012131
1643124152.0000    311296.000000       -16.235610    312372.100000      -136.182900    311628.500000       103.648600        15.645700       102.100900        18.329630        -2.104485        20.535770      -132.497600        59.982110         0.006638
1643124153.0000    311264.700000       -22.751200    312344.200000      -142.678300    311696.900000        97.142940        16.339530        93.736150        18.110810        -8.605957        19.912580      -140.952200        59.982690         0.022202
1643124154.0000    311383.900000       -28.808840    312430.400000      -148.747100    311738.700000        91.082170        14.821340        87.125580        17.757800       -12.673640        19.729360      -145.588000        59.984230         0.006866
1643124155.0000    311344.700000       -33.836510    312464.200000      -153.790200    311696.000000        86.037780        15.549680        81.270980        17.526590       -15.420880        20.110290      -151.334400        59.987670         0.055161
1643124156.0000    311241.700000       -38.118450    312346.900000      -158.062700    311598.800000        81.759200        16.518160        79.549780        18.766730       -22.807710        21.127490      -155.544400        59.989690         0.025864
1643124157.0000    311268.400000       -41.810610    312349.800000      -161.772700    311553.000000        78.064180        16.297080        72.678060        18.544240       -25.106440        20.842180      -161.183200        59.989540        -0.021744
1643124158.0000    311289.200000       -45.410500    312410.300000      -165.352800    311677.500000        74.467470        15.705210        71.887500        17.911010       -26.796640        20.124400      -162.491800        59.991550         0.016708
1643124159.0000    311258.900000       -47.985190    312310.100000      -167.938300    311557.600000        71.898000        16.177430        62.250210        18.052500       -36.766920        21.211600      -169.029600        59.994140        -0.014648
1643124160.0000    311219.300000       -49.514140    312374.400000      -169.461400    311603.900000        70.359270        16.696430        63.638500        18.492780       -36.977400        21.485820      -168.740600        59.997630         0.024490
1643124161.0000    311348.800000       -50.618870    312443.100000      -170.559100    311726.700000        69.266910        16.183790        65.737870        17.760430       -35.310700        19.787720      -168.455600        59.999000         0.036621
1643124162.0000    311319.500000       -50.972220    312403.400000      -170.906400    311711.900000        68.915170        15.258490        62.868000        17.046810       -37.848450        20.018210      -172.658600        59.999600        -0.038452
1643124163.0000    311244.300000       -50.964780    312391.200000      -170.904200    311662.600000        68.914010        16.465240        60.305820        17.582150       -41.208750        20.581880      -170.799700        60.001340        -0.018768
1643124164.0000    311269.600000       -50.961220    312444.700000      -170.904500    311698.600000        68.913170        15.550520        61.629540        16.923190       -36.327260        20.044950      -170.174300        59.998980        -0.033417
1643124165.0000    311324.900000       -51.241360    312503.400000      -171.209100    311613.100000        68.611940        15.517520        57.604680        17.779800       -36.111450        20.141360      -172.537200        59.998480        -0.007324
1643124166.0000    311259.700000       -51.359620    312358.400000      -171.309500    311597.600000        68.519810        16.117630        59.832440        17.951790       -39.322460        20.276160      -173.352200        60.000760         0.067749
1643124167.0000    311274.500000       -52.215620    312383.800000      -172.134700    311763.700000        67.678040        15.324270        61.453980        17.951730       -38.922620        19.679000      -172.054900        59.996120         0.022202
1643124168.0000    311264.300000       -53.984410    312393.600000      -173.916100    311733.000000        65.897000        15.994190        60.082950        17.751820       -40.338880        20.003500      -174.323900        59.994530        -0.006638
1643124169.0000    311226.700000       -55.749610    312334.400000      -175.696700    311587.100000        64.131490        16.793340        54.593860        18.463400       -45.785900        21.022800      -178.054500        59.995290         0.019913
1643124170.0000    311242.600000       -58.357420    312334.900000      -178.299300    311637.800000        61.524370        16.220570        55.493400        18.739420       -45.005520        20.321150      -177.881500        59.992080        -0.027924
1643124171.0000    311299.700000       -61.444290    312390.900000       178.623000    311714.400000        58.449040        15.660680        51.642880        18.053370       -48.947190        19.993270       177.288500        59.991150         0.053101
1643124172.0000    311100.000000       -65.215550    312209.500000       174.849500    311527.000000        54.671890        17.616590        42.041340        18.497780       -58.631940        21.388180       170.600100        59.987020        -0.040741
1643124173.0000    311162.000000       -70.116810    312314.600000       169.944100    311579.300000        49.759220        16.640720        41.603270        18.088860       -61.713920        20.874390       169.968400        59.985390         0.005722
1643124174.0000    311391.900000       -75.690250    312501.200000       164.361800    311738.300000        44.190320        14.587140        38.876060        16.452550       -57.716160        18.638820       166.298000        59.983570         0.007324
1643124175.0000    311186.300000       -82.487430    312317.800000       157.565100    311595.000000        37.388640        16.781590        27.999520        17.617240       -71.071360        20.588990       155.892900        59.979270         0.004578
1643124176.0000    311133.500000       -90.009700    312269.200000       150.061100    311600.900000        29.874130        16.974560        19.322280        18.205550       -82.274640        20.883300       147.581100        59.979560         0.035706
1643124177.0000    311309.800000       -97.991340    312382.700000       142.058800    311635.500000        21.889500        15.194130        12.093930        17.001840       -83.957440        19.878550       137.092000        59.976930        -0.007782
1643124178.0000    311336.700000      -105.867000    312367.300000       134.182800    311629.500000        14.022430        15.793160         6.632864        17.480600       -92.030140        20.065480       132.153000        59.977750         0.013962
1643124179.0000    311172.400000      -114.358600    312254.100000       125.722900    311638.700000         5.539721        16.336970        -2.528509        18.427400      -103.813500        20.799970       125.458900        59.974350        -0.005951
