Terminal: LT 525  IVAIPORA ELS - LONDRINA ESU C1
Tensão base: 525 kV
SOC inicial: 1643124120
SOC final: 1643124179
Taxa: 1 fasores/s
Total de frames faltantes: - 

Tempo_(SOC)           VA_mod_(V)     VA_ang_(graus)     VB_mod_(V)     VB_ang_(graus)     VC_mod_(V)     VC_ang_(graus)     IA_mod_(A)     IA_ang_(graus)     IB_mod_(A)     IB_ang_(graus)     IC_mod_(A)     IC_ang_(graus)     Frequência        Delta_Freq     Faltante
1643124120.0000    312187.700000      -105.662800    312770.600000       134.047400    311162.600000        14.220610       316.543900        60.316120       294.127400       -58.985330       302.867100      -177.045300        59.973990        -0.024261
1643124121.0000    312047.700000      -114.760800    312743.200000       124.968500    311164.300000         5.114958       316.622100        51.124420       293.468100       -68.186190       302.929900       173.776300        59.974120        -0.037994
1643124122.0000    312067.100000      -124.200800    312594.800000       115.517000    311062.500000        -4.307560       315.618700        41.626710       293.076700       -77.642970       301.773500       164.218300        59.973590         0.036163
1643124123.0000    312127.600000      -134.159000    312821.800000       105.567100    311233.200000       -14.285170       315.818200        31.489920       292.467300       -87.813000       301.612000       154.167800        59.972100        -0.029755
1643124124.0000    312189.500000      -144.357100    312817.600000        95.371180    311263.200000       -24.471310       315.656400        21.316530       292.259900       -97.977710       301.211000       143.945900        59.971440         0.032730
1643124125.0000    312161.700000      -155.062000    312778.500000        84.644670    311144.500000       -35.184230       314.454800        10.689280       291.545100      -108.642900       300.664600       133.275900        59.970510         0.033188
1643124126.0000    312014.300000      -166.287700    312711.700000        73.426030    311088.000000       -46.423040       315.402800        -0.527129       292.094500      -119.760400       301.225300       122.183700        59.967780        -0.022888
1643124127.0000    312159.500000      -177.886600    312753.400000        61.833160    311190.300000       -57.999290       315.821400       -12.039100       292.665600      -131.340000       301.451200       110.612800        59.967900         0.007553
1643124128.0000    312190.600000       170.913400    312764.100000        50.642520    311261.700000       -69.193470       314.071200       -23.447700       291.197500      -142.666000       300.630500        99.281420        59.968740         0.018997
1643124129.0000    312141.900000       159.398100    312781.600000        39.106960    311146.800000       -80.727250       316.563800       -34.612720       293.727800      -153.892800       302.391500        87.998280        59.967780         0.029068
1643124130.0000    312246.600000       148.069700    312907.300000        27.799460    311351.700000       -92.052610       315.032700       -46.057960       291.973100      -165.338600       301.134400        76.567420        59.969020         0.025864
1643124131.0000    311916.800000       136.465700    312591.900000        16.180290    310973.900000      -103.664900       315.602500       -57.641660       292.765400      -176.945800       301.652100        64.965230        59.965070        -0.073013
1643124132.0000    311952.200000       124.164900    312611.300000         3.872043    310949.000000      -115.966800       315.585200       -69.889380       293.658100       170.828400       302.060800        52.672100        59.965410        -0.002060
1643124133.0000    312027.600000       111.232300    312710.200000        -9.056429    311068.200000      -128.900400       315.492100       -82.904840       292.549000       157.744000       301.547600        39.698510        59.962720        -0.054474
1643124134.0000    311905.800000        97.686450    312617.100000       -22.610710    310927.200000      -142.452100       316.222800       -96.550450       293.270500       144.147800       302.492000        26.077620        59.961590         0.017166
1643124135.0000    312130.700000        83.407650    312757.200000       -36.882350    311125.700000      -156.715200       315.592400      -110.765500       292.498700       129.976400       301.734400        11.891610        59.960120         0.020828
1643124136.0000    312131.300000        68.944850    312774.700000       -51.345570    311136.500000      -171.180600       314.740300      -125.204300       291.843200       115.531300       300.883400        -2.588982        59.959290        -0.050125
1643124137.0000    312123.000000        54.863240    312741.200000       -65.412130    311196.800000       174.745100       314.952300      -139.104100       291.887000       101.643000       300.585000       -16.431590        59.962520         0.046692
1643124138.0000    312255.800000        41.431720    312906.200000       -78.845700    311327.500000       161.311300       315.947300      -152.320300       292.891900        88.353120       301.951000       -29.703060        59.963890         0.002289
1643124139.0000    312104.100000        28.697830    312762.900000       -91.591140    311136.800000       148.569500       315.583600      -165.407000       292.252900        75.366500       301.719000       -42.723350        59.966470         0.079651
1643124140.0000    312108.300000        16.096590    312794.600000      -104.178500    311217.500000       135.972800       315.605800      -177.885100       292.232400        62.963020       301.813800       -55.151700        59.966340         0.037308
1643124141.0000    312132.700000         4.079740    312746.600000      -116.212100    311125.700000       123.955600       316.127700       170.053600       292.980000        50.915000       302.341500       -67.231560        59.967780         0.004120
1643124142.0000    312099.100000        -7.685385    312720.900000      -127.968000    311150.800000       112.194900       315.782900       158.296700       293.064300        39.066630       302.112800       -79.009100        59.967950         0.030441
1643124143.0000    312215.300000       -18.851270    312862.500000      -139.127100    311307.000000       101.030200       314.784600       147.200700       291.340100        28.002200       300.604200       -90.031580        59.968790        -0.026093
1643124144.0000    312224.900000       -29.343990    312825.800000      -149.630000    311245.300000        90.542570       315.365500       136.667500       291.978900        17.487920       301.615400      -100.580700        59.971630         0.043945
1643124145.0000    312113.300000       -39.488180    312699.200000      -159.766700    311156.700000        80.397010       316.104300       126.673500       293.114400         7.560792       302.462500      -110.618400        59.972540         0.014648
1643124146.0000    312079.400000       -49.145340    312626.800000      -169.421100    311107.700000        70.752460       314.937900       116.963400       292.207200        -2.192255       301.572600      -120.328300        59.975510         0.113068
1643124147.0000    312161.500000       -58.696270    312767.100000      -178.981100    311183.100000        61.188500       315.770300       107.489000       292.397600       -11.764170       301.719000      -129.810900        59.973350        -0.024033
1643124148.0000    312165.900000       -68.094700    312696.700000       171.612200    311098.300000        51.795570       314.783500        97.840020       291.873400       -21.373170       301.182700      -139.508100        59.974160        -0.055161
1643124149.0000    312140.100000       -77.131180    312735.300000       162.579000    311127.900000        42.750640       315.016200        88.835750       292.043800       -30.398400       301.336800      -148.503400        59.975720         0.005035
1643124150.0000    312266.400000       -85.657020    312836.200000       154.056800    311274.000000        34.231360       315.462600        80.433020       292.112200       -38.852600       301.501500      -156.920400        59.977710         0.030670
1643124151.0000    312234.300000       -93.183840    312862.900000       146.545900    311322.300000        26.702900       315.981800        72.815430       292.248500       -46.446760       302.007800      -164.422100        59.980310         0.023804
1643124152.0000    312304.000000      -100.147800    312941.300000       139.569100    311347.400000        19.730040       315.047400        65.906760       291.900200       -53.300260       300.989200      -171.358500        59.980880        -0.040512
1643124153.0000    312117.900000      -106.572700    312824.600000       133.148800    311215.800000        13.294430       315.296400        59.546650       292.375600       -59.768180       301.304900      -177.770200        59.982120        -0.005493
1643124154.0000    312200.500000      -112.411500    312815.700000       127.293400    311160.600000         7.466042       312.520200        53.262070       289.410600       -65.921700       298.756700       175.940500        59.985020        -0.006866
1643124155.0000    312232.900000      -117.504800    312846.400000       122.211300    311277.400000         2.380698       314.114500        48.379010       291.129100       -70.844160       300.198900       171.068800        59.987070         0.013504
1643124156.0000    312255.600000      -121.652600    312917.000000       118.073900    311335.800000        -1.774918       311.471300        43.933280       288.396500       -75.390510       297.281600       166.680100        59.989050         0.003204
1643124157.0000    312268.700000      -125.587300    312887.400000       114.133100    311328.000000        -5.701826       312.501800        40.223520       289.527400       -78.944050       299.109200       162.919900        59.990250         0.043259
1643124158.0000    312281.100000      -129.007100    312893.700000       110.712700    311344.000000        -9.125163       311.953600        36.754870       288.623600       -82.545350       297.772600       159.415600        59.992660         0.005264
1643124159.0000    312201.900000      -131.400000    312877.900000       108.326200    311297.700000       -11.523060       312.630300        34.239330       289.449900       -85.013890       298.417000       156.978000        59.993400        -0.000916
1643124160.0000    312301.900000      -133.177800    312924.000000       106.537800    311335.400000       -13.298150       312.198100        32.604790       289.108400       -86.684890       297.801200       155.266100        59.996250        -0.019455
1643124161.0000    312187.900000      -134.093600    312804.600000       105.629100    311258.300000       -14.210390       311.956500        31.568990       289.302200       -87.713260       298.340600       154.204600        59.997900        -0.016479
1643124162.0000    312140.300000      -134.656300    312811.300000       105.062800    311206.800000       -14.781560       312.597700        31.077780       289.784200       -88.132580       299.016700       153.696700        59.997760        -0.081711
1643124163.0000    311995.700000      -134.750500    312619.300000       104.962800    311042.800000       -14.868740       314.089500        31.151040       291.485500       -88.172750       299.928200       153.718400        60.000720         0.033188
1643124164.0000    312139.400000      -134.745600    312779.300000       104.963300    311132.900000       -14.871300       312.606100        30.871850       289.789200       -88.375660       298.823500       153.588100        60.000540        -0.000229
1643124165.0000    312109.500000      -134.747100    312773.300000       104.967900    311163.500000       -14.874890       312.417300        30.747680       289.098900       -88.603100       298.481000       153.385500        59.999290         0.004578
1643124166.0000    312001.800000      -135.154800    312610.800000       104.571200    311063.900000       -15.266210       313.800300        30.530630       290.776300       -88.832670       298.994800       153.146200        59.997430        -0.034332
1643124167.0000    312004.200000      -136.145400    312711.100000       103.564100    311027.600000       -16.278840       314.377400        29.567260       291.271500       -89.596620       300.687200       152.340900        59.997650         0.034561
1643124168.0000    312105.800000      -137.284900    312802.900000       102.420400    311120.100000       -17.422040       311.314100        28.042210       288.285900       -91.110240       297.632600       150.746400        59.996090        -0.019684
1643124169.0000    312003.600000      -139.245400    312692.200000       100.478700    311110.400000       -19.372230       313.941100        26.320870       290.625800       -92.934840       300.052600       149.038800        59.994580         0.043488
1643124170.0000    312014.800000      -141.771000    312630.700000        97.950960    311062.800000       -21.886960       312.613200        23.651190       289.895100       -95.695590       298.911800       146.280800        59.990950        -0.013275
1643124171.0000    311954.000000      -144.997100    312664.400000        94.714590    311016.600000       -25.128430       313.271400        20.610210       290.343600       -98.596980       299.499900       143.307700        59.989540        -0.025177
1643124172.0000    312025.800000      -148.925600    312656.400000        90.785850    311022.900000       -29.050270       314.026700        16.710490       290.434400      -102.634800       299.697300       139.337700        59.988180         0.014877
1643124173.0000    311963.300000      -153.693800    312669.900000        86.027280    311044.200000       -33.822740       314.197800        12.004750       290.855100      -107.228800       300.036100       134.714800        59.985460        -0.006638
1643124174.0000    311912.300000      -159.613800    312531.600000        80.097380    310921.100000       -39.738150       315.429200         6.262537       292.644200      -113.013800       301.561600       128.872400        59.982210        -0.007324
1643124175.0000    311967.100000      -166.223900    312636.800000        73.497570    311025.600000       -46.348680       314.626900        -0.447804       291.593400      -119.776200       300.747600       122.235500        59.979800        -0.032959
1643124176.0000    311908.300000      -173.712600    312576.100000        66.014350    311019.900000       -53.834240       313.363300        -7.936526       290.098200      -127.192500       299.049100       114.797300        59.977390        -0.075760
1643124177.0000    312108.900000       178.533800    312700.200000        58.244290    311094.300000       -61.584960       312.605100       -15.779930       289.968000      -135.078200       298.820600       106.810000        59.978480        -0.035248
1643124178.0000    311971.500000       170.532200    312587.700000        50.252200    311013.200000       -69.584020       313.508300       -23.732980       290.747500      -142.975800       299.418400        98.955740        59.977870         0.049667
1643124179.0000    311945.500000       161.749700    312633.800000        41.468260    311016.700000       -78.379460       313.216600       -32.376710       290.358900      -151.567600       299.518800        90.311780        59.975820         0.039368
