Terminal: LT 525  AREIA - IVAIPORA ELS C1
Tensão base: 525 kV
SOC inicial: 1643124120
SOC final: 1643124179
Taxa: 1 fasores/s
Total de frames faltantes: - 

Tempo_(SOC)           VA_mod_(V)     VA_ang_(graus)     VB_mod_(V)     VB_ang_(graus)     VC_mod_(V)     VC_ang_(graus)     IA_mod_(A)     IA_ang_(graus)     IB_mod_(A)     IB_ang_(graus)     IC_mod_(A)     IC_ang_(graus)     Frequência        Delta_Freq     Faltante
1643124120.0000    312315.600000      -113.226900    314051.200000       126.646200    313261.100000         6.592864       734.774500        63.920040       699.773900       -55.924540       725.892400      -173.381600        59.974980        -0.017166
1643124121.0000    312248.900000      -122.336600    314102.900000       117.562600    313368.000000        -2.516101       735.086100        54.923380       699.462500       -64.913150       726.180800       177.649300        59.974560        -0.013962
1643124122.0000    312215.400000      -131.776600    314010.000000       108.120500    313277.300000       -11.946260       735.317300        45.447000       698.570700       -74.283620       726.823700       168.275900        59.972980         0.029068
1643124123.0000    312268.100000      -141.709500    314122.300000        98.193490    313389.500000       -21.889440       733.221100        35.423470       696.938400       -84.430680       723.907200       158.190900        59.973160         0.025635
1643124124.0000    312344.300000      -151.899000    314125.300000        88.004190    313433.800000       -32.071090       732.667500        25.236900       696.448200       -94.617080       723.161600       148.013300        59.971610         0.022430
1643124125.0000    312257.700000      -162.610400    314030.600000        77.262790    313200.600000       -42.793510       733.183000        14.446270       697.698200      -105.394400       724.325100       137.154400        59.970580         0.044403
1643124126.0000    312248.000000      -173.851300    314086.600000        66.030260    313257.100000       -54.038500       733.650000         3.404521       698.668000      -116.471200       724.670200       126.098300        59.967980        -0.006180
1643124127.0000    312234.200000       174.523800    313982.400000        54.434570    313347.600000       -65.638960       737.104000        -8.348443       699.366100      -128.211300       727.245500       114.505400        59.967700         0.019226
1643124128.0000    312276.800000       163.364100    314060.300000        43.256490    313311.900000       -76.810230       733.526700       -19.564930       698.404800      -139.361700       725.293600       103.136400        59.967940         0.005264
1643124129.0000    312280.100000       151.813500    314061.600000        31.691490    313247.600000       -88.371040       736.496600       -30.991980       701.267000      -150.853800       727.603400        91.679620        59.967930         0.028152
1643124130.0000    312414.200000       140.517300    314202.400000        20.422850    313526.300000       -99.653370       733.464800       -42.342160       697.275300      -162.206200       723.990000        80.415350        59.969780         0.072098
1643124131.0000    312130.700000       128.902600    313951.300000         8.780510    313121.900000      -111.284900       734.213500       -53.880870       698.921100      -173.754700       725.221100        68.790950        59.967190         0.016479
1643124132.0000    312162.700000       116.598100    313969.400000        -3.534066    313080.800000      -123.593200       734.602200       -66.159780       699.608500       173.982400       725.468600        56.499730        59.965600        -0.011902
1643124133.0000    312125.100000       103.656200    314037.600000       -16.464990    313204.600000      -136.545100       735.569600       -79.199140       700.096900       161.075500       727.453700        43.559450        59.962370        -0.103684
1643124134.0000    312149.600000        90.112980    313938.500000       -30.014940    313105.400000      -150.074300       734.827200       -92.584460       699.902200       147.465600       725.210800        30.052880        59.961310        -0.012131
1643124135.0000    312312.400000        75.847160    314116.700000       -44.273280    313323.400000      -164.334300       734.326200      -106.932100       698.424100       133.216400       725.287800        15.795920        59.960110        -0.012360
1643124136.0000    312289.700000        61.364670    314095.700000       -58.743380    313346.100000      -178.813400       736.022100      -121.443600       699.227700       118.737900       726.514200         1.369244        59.959260        -0.034332
1643124137.0000    312264.700000        47.288280    314005.600000       -72.816290    313298.300000       167.124700       735.472900      -135.536600       699.825400       104.562000       725.999900       -12.862570        59.962880         0.073700
1643124138.0000    312413.300000        33.847890    314200.500000       -86.245640    313526.600000       153.678300       736.612400      -148.938400       699.743100        91.194430       726.794900       -26.160480        59.963960        -0.012360
1643124139.0000    312177.300000        21.125200    313986.400000       -99.001310    313162.100000       140.935700       735.485800      -161.793400       700.401900        78.365590       726.456100       -39.120870        59.965580         0.054932
1643124140.0000    312295.800000         8.523417    314141.000000      -111.581100    313391.800000       128.343700       735.364300      -174.264800       699.702500        65.899590       726.428600       -51.517940        59.966310         0.033646
1643124141.0000    312195.800000        -3.510524    313946.800000      -123.624800    313191.700000       116.315600       737.219600       173.576300       700.575800        53.678840       727.332600       -63.658240        59.967370         0.022888
1643124142.0000    312185.800000       -15.266030    313994.100000      -135.389800    313163.300000       104.546800       736.354100       161.860900       701.554200        42.032020       727.903600       -75.492360        59.967780         0.031586
1643124143.0000    312271.800000       -26.422120    314114.100000      -146.527100    313357.800000        93.394370       735.730400       150.606200       700.021700        30.828440       727.307900       -86.624300        59.968770        -0.016022
1643124144.0000    312343.600000       -36.910160    314130.000000      -157.020000    313377.300000        82.914010       735.048200       140.193000       698.609400        20.372010       725.889000       -97.010410        59.971340         0.011673
1643124145.0000    312220.000000       -47.075480    313996.000000      -167.172300    313312.200000        72.753070       736.996500       130.098200       700.024800        10.273800       727.634800      -107.108700        59.972560         0.000000
1643124146.0000    312192.700000       -56.721480    313950.600000      -176.821100    313262.000000        63.114110       735.695200       120.412300       699.228000         0.630557       726.920300      -116.774800        59.974950         0.073929
1643124147.0000    312274.800000       -66.274330    314066.100000       173.615900    313304.800000        53.550410       736.098200       110.863700       699.792500        -8.945696       727.033500      -126.387400        59.973230        -0.016022
1643124148.0000    312230.500000       -75.650350    313969.300000       164.232400    313211.700000        44.176960       733.855000       101.380700       697.669100       -18.404970       724.970400      -135.802300        59.973640        -0.069809
1643124149.0000    312247.700000       -84.687710    314009.300000       155.191300    313225.400000        35.134930       733.734500        92.365320       697.914300       -27.465140       724.884500      -144.893600        59.976070         0.012360
1643124150.0000    312317.300000       -93.232600    314038.500000       146.648300    313278.200000        26.598910       736.101700        83.817700       700.385300       -36.052910       726.785200      -153.480900        59.977500         0.055389
1643124151.0000    312264.800000      -100.759500    314056.400000       139.140100    313331.800000        19.067350       736.095300        76.249670       699.878500       -43.599080       726.930100      -160.996300        59.979800         0.010300
1643124152.0000    312372.500000      -107.709500    314162.600000       132.183200    313421.100000        12.115390       734.598900        69.285780       698.357400       -50.545020       725.290500      -167.924900        59.981250        -0.029068
1643124153.0000    312273.500000      -114.118500    314146.200000       125.770000    313332.700000         5.690474       732.499200        63.022240       697.493400       -56.831970       723.880900      -174.281400        59.983570         0.037766
1643124154.0000    312229.100000      -119.940900    313977.300000       119.930400    313171.300000        -0.123422       731.702300        56.950530       696.241800       -62.917750       722.494400       179.659200        59.985320         0.008698
1643124155.0000    312287.500000      -125.048700    314078.200000       114.834200    313302.700000        -5.227672       733.202000        51.932260       697.187100       -67.897280       724.482800       174.671600        59.987440         0.014877
1643124156.0000    312218.600000      -129.151000    314086.300000       110.743400    313333.800000        -9.338383       728.903200        47.649030       693.020000       -72.184630       720.070700       170.423000        59.989100         0.004578
1643124157.0000    312289.200000      -133.093900    314119.400000       106.795700    313357.200000       -13.278650       729.791800        43.776790       693.932100       -76.011180       721.154300       166.564100        59.990620         0.041199
1643124158.0000    312260.700000      -136.526200    314063.200000       103.364600    313307.800000       -16.705530       730.760900        40.297580       694.637600       -79.509010       721.890300       163.058900        59.992060        -0.003891
1643124159.0000    312089.900000      -138.918900    313907.600000       100.987000    313219.300000       -19.093520       730.693600        37.798900       694.435200       -82.095470       721.156700       160.571000        59.993450        -0.018768
1643124160.0000    312272.200000      -140.699700    314068.900000        99.185330    313304.100000       -20.882520       731.024900        36.127630       695.293600       -83.682400       722.053500       158.860200        59.996150        -0.024261
1643124161.0000    312182.700000      -141.603100    313979.300000        98.285670    313238.500000       -21.784310       729.565200        35.240970       693.906600       -84.587910       720.888000       157.988400        59.997490        -0.038681
1643124162.0000    312089.800000      -142.172700    313927.300000        97.703220    313113.600000       -22.363640       730.384900        34.624410       695.656900       -85.201680       721.811200       157.325500        59.997610        -0.105057
1643124163.0000    312024.000000      -142.278200    313770.800000        97.600100    312995.600000       -22.451760       731.118000        34.624750       695.460100       -85.293210       721.302900       157.320900        60.000120         0.017166
1643124164.0000    312067.100000      -142.250900    313926.800000        97.620220    313073.700000       -22.452020       729.487700        34.497440       694.133100       -85.262950       721.451500       157.255300        60.001300         0.009613
1643124165.0000    312069.000000      -142.255500    313971.300000        97.632260    313165.500000       -22.449750       729.492700        34.545300       692.984000       -85.249930       720.933000       157.366500        59.999210        -0.016937
1643124166.0000    312037.300000      -142.684300    313780.800000        97.217660    313117.600000       -22.849210       730.858400        34.229630       694.679600       -85.625520       721.413500       157.007600        59.997770        -0.023346
1643124167.0000    312026.300000      -143.670800    313920.600000        96.205900    313054.800000       -23.871310       730.911900        33.224900       694.946500       -86.562390       722.091900       155.986100        59.998030         0.038910
1643124168.0000    312039.400000      -144.781000    313981.800000        95.090090    313077.600000       -24.992730       728.342700        31.952160       692.885300       -87.795330       720.247600       154.734300        59.995070        -0.062943
1643124169.0000    311974.900000      -146.781100    313849.400000        93.123690    313125.400000       -26.962600       731.694900        30.076280       694.928500       -89.777470       722.095700       152.890600        59.993870         0.018768
1643124170.0000    312102.400000      -149.279500    313865.200000        90.608940    313140.900000       -29.456380       729.445600        27.676750       693.591600       -92.199130       719.668900       150.428300        59.992360         0.026093
1643124171.0000    312107.300000      -152.521600    313940.500000        87.357930    313123.700000       -32.712870       730.391600        24.522040       694.772000       -95.341620       721.068700       147.236800        59.989990         0.006638
1643124172.0000    312104.300000      -156.467200    313836.200000        83.418130    313092.400000       -36.638090       732.093400        20.538060       696.177400       -99.352910       722.321700       143.275700        59.988540         0.041428
1643124173.0000    312082.400000      -161.216800    313914.600000        78.670310    313135.000000       -41.400140       730.155100        15.848490       695.186500      -104.052400       720.893300       138.503800        59.985610        -0.016251
1643124174.0000    312074.100000      -167.153500    313830.900000        72.721640    313043.300000       -47.336640       731.536800         9.971308       696.163400      -109.894900       722.528400       132.645700        59.982850         0.017166
1643124175.0000    312061.100000      -173.760200    313896.100000        66.132750    313165.700000       -53.941220       731.568900         3.293303       695.426100      -116.567200       722.159300       126.062500        59.979870        -0.037079
1643124176.0000    312026.000000       178.752000    313853.700000        58.655900    313161.900000       -61.421010       730.804700        -4.174314       695.214700      -124.029000       721.798000       118.574700        59.977630        -0.019913
1643124177.0000    312153.700000       171.002500    313914.200000        50.886590    313163.000000       -69.172630       731.489700       -12.035490       695.264300      -131.908500       721.932600       110.738500        59.978320        -0.016937
1643124178.0000    312043.100000       162.998700    313817.000000        42.876780    313039.000000       -77.181140       731.416300       -20.013970       696.759200      -139.828900       723.117200       102.681900        59.977330         0.040054
1643124179.0000    312059.600000       154.207100    313903.100000        34.091790    313113.400000       -85.982140       732.099200       -28.723640       696.894700      -148.575300       723.121300        93.979780        59.975750         0.028381
