Terminal: LT 500  GENTIO OURO II - SOL DO SERTAO C1
Tensão base: 500 kV
SOC inicial: 1643124120
SOC final: 1643124179
Taxa: 1 fasores/s
Total de frames faltantes: - 

Tempo_(SOC)           VA_mod_(V)     VA_ang_(graus)     VB_mod_(V)     VB_ang_(graus)     VC_mod_(V)     VC_ang_(graus)     IA_mod_(A)     IA_ang_(graus)     IB_mod_(A)     IB_ang_(graus)     IC_mod_(A)     IC_ang_(graus)     Frequência        Delta_Freq     Faltante
1643124120.0000    308042.700000       -30.085260    308809.000000      -150.282200    307230.900000        89.734770       347.381500       -12.646360       360.745800      -134.154100       345.369800       105.666300        59.974850        -0.015106
1643124121.0000    308016.700000       -39.097720    308809.000000      -159.294600    307250.300000        80.719420       348.994000       -21.790610       361.296700      -143.364500       346.894700        96.606280        59.973590        -0.022430
1643124122.0000    307985.400000       -48.537930    308803.900000      -168.737600    307201.600000        71.275330       348.204400       -31.220090       361.935700      -152.751700       346.811200        86.982960        59.973880         0.061111
1643124123.0000    308022.000000       -58.526430    308793.900000      -178.727000    307208.200000        61.286190       348.446400       -41.059780       362.587700      -162.877200       346.193100        76.958960        59.972870         0.055389
1643124124.0000    308039.700000       -68.872830    308833.900000       170.927200    307244.500000        50.940560       347.389900       -51.425250       360.173200      -173.024900       345.516100        66.745250        59.971340        -0.008469
1643124125.0000    308000.700000       -79.505200    308815.800000       160.300100    307243.200000        40.310100       347.842700       -62.190250       360.718200       176.225500       345.090600        56.053550        59.969920         0.013504
1643124126.0000    307993.900000       -90.651500    308780.900000       149.147100    307194.500000        29.161930       347.245400       -73.142860       361.664000       165.129400       345.754900        44.995060        59.968660        -0.005035
1643124127.0000    307998.300000      -102.224400    308807.200000       137.577300    307218.600000        17.594100       348.069900       -84.609100       361.199900       153.597300       346.432500        33.400000        59.966560        -0.009155
1643124128.0000    308082.200000      -113.669200    308889.900000       126.133200    307303.900000         6.148736       344.290200       -96.003240       358.001600       142.358900       343.710400        22.095820        59.970730         0.111237
1643124129.0000    308007.500000      -124.808200    308790.000000       114.993500    307213.400000        -4.989789       347.453600      -107.221700       360.468900       131.035100       345.253800        10.898770        59.969640         0.011902
1643124130.0000    308015.100000      -136.299200    308811.800000       103.501300    307232.000000       -16.487130       346.155300      -118.924500       359.656600       119.529300       344.748600        -0.686408        59.967470         0.010986
1643124131.0000    307957.200000      -147.793100    308742.300000        92.005510    307138.500000       -27.980520       345.043800      -130.463500       358.788500       108.098000       343.174500       -12.244730        59.966140        -0.094986
1643124132.0000    307963.700000      -159.852800    308749.500000        79.950120    307176.400000       -40.033760       347.258300      -142.542600       359.220200        95.796030       345.502300       -24.365030        59.965590         0.005493
1643124133.0000    307982.300000      -172.974300    308746.700000        66.823830    307172.900000       -53.156830       345.494600      -155.503100       360.258100        82.531920       343.931700       -37.580060        59.963390         0.040741
1643124134.0000    308004.300000       173.370800    308770.000000        53.169530    307187.400000       -66.807110       344.421000      -169.287000       359.167600        69.192010       342.755700       -50.972080        59.961620        -0.003891
1643124135.0000    307978.600000       159.228200    308741.600000        39.026940    307175.300000       -80.951930       346.196400       176.690900       360.357500        54.994300       344.136000       -65.182230        59.960100         0.024490
1643124136.0000    308031.800000       144.621400    308804.600000        24.419350    307213.600000       -95.562170       344.719500       162.199800       358.770200        40.484650       343.713800       -79.792760        59.959160        -0.024033
1643124137.0000    307994.900000       130.759400    308805.800000        10.556830    307217.500000      -109.428600       346.529800       148.143100       359.221500        26.481440       343.998800       -93.479520        59.961880         0.024948
1643124138.0000    307961.300000       117.522500    308766.000000        -2.676733    307173.100000      -122.661800       347.827000       134.915300       361.477800        13.296520       345.874800      -106.817800        59.963460         0.003891
1643124139.0000    308010.600000       104.619500    308811.300000       -15.575680    307239.600000      -135.562000       346.405500       122.202500       359.010500         0.543006       343.801900      -119.662000        59.964940         0.050125
1643124140.0000    307966.900000        92.220630    308752.000000       -27.972990    307173.000000      -147.963000       347.033600       109.596900       360.838000       -12.073470       345.402200      -132.345600        59.964950        -0.023804
1643124141.0000    307983.900000        80.097620    308781.500000       -40.102080    307202.000000      -160.086900       346.340800        97.507450       359.492000       -24.243340       344.579000      -144.144000        59.966140         0.002975
1643124142.0000    307966.700000        68.469990    308780.000000       -51.724210    307209.900000      -171.717200       347.873500        85.543750       361.231400       -35.875770       345.353300      -156.077500        59.968140         0.000229
1643124143.0000    308009.900000        57.234760    308807.500000       -62.962320    307227.000000       177.050800       345.276900        74.513350       358.650600       -46.970580       343.499700      -167.343200        59.970000        -0.001144
1643124144.0000    307975.000000        46.675270    308793.700000       -73.516460    307258.000000       166.493700       345.994400        64.181950       358.589800       -57.557910       344.300400      -177.806800        59.972230         0.033875
1643124145.0000    307924.800000        36.744610    308713.000000       -83.447970    307155.000000       156.564300       347.329500        53.972340       360.914200       -67.487560       344.250500       172.346300        59.970200        -0.146027
1643124146.0000    307968.400000        27.073990    308772.700000       -93.121710    307206.500000       146.892700       346.945500        44.423500       360.710200       -77.206350       344.957000       162.534400        59.973430         0.010300
1643124147.0000    307993.800000        17.593480    308799.600000      -102.611900    307177.800000       137.404000       347.172900        34.740040       360.988900       -86.667690       344.909000       152.982200        59.974690         0.072327
1643124148.0000    308010.100000         8.068163    308851.100000      -112.145200    307197.900000       127.873300       345.900500        25.488460       360.043300       -96.055140       345.291000       143.594200        59.975090         0.080795
1643124149.0000    308017.000000        -1.027868    308816.900000      -121.234900    307185.200000       118.785000       345.079300        16.343350       359.422900      -105.166900       343.966600       134.635300        59.975680         0.005493
1643124150.0000    308041.000000        -9.601086    308847.600000      -129.811100    307221.600000       110.210000       344.647000         7.966039       359.312400      -113.835900       343.474400       125.934500        59.976540        -0.021515
1643124151.0000    308102.200000       -17.251700    308884.100000      -137.468100    307230.200000       102.555800       343.578400         0.376438       357.533900      -121.238700       341.795600       118.453900        59.979180        -0.004120
1643124152.0000    308040.400000       -24.073490    308832.300000      -144.286500    307187.500000        95.738210       343.734100        -6.620833       358.616900      -128.325500       343.180200       111.321500        59.981910         0.014648
1643124153.0000    308058.800000       -30.562830    308827.600000      -150.771800    307221.100000        89.249630       342.690000       -13.010030       357.420400      -134.787700       340.979000       105.161900        59.982590         0.031128
1643124154.0000    308082.200000       -36.539220    308865.800000      -156.749600    307238.700000        83.273940       342.892300       -18.956000       356.200500      -140.566400       341.662600        99.328970        59.983560        -0.026550          *
1643124155.0000    308100.000000       -41.640340    308890.200000      -161.849300    307282.500000        78.175670       342.634900       -24.179340       356.452100      -145.928800       341.066000        94.067920        59.987690         0.069809
1643124156.0000    308057.600000       -45.930730    308872.000000      -166.143700    307234.300000        73.879520       342.064800       -28.439130       357.236600      -150.218900       340.671400        89.635640        59.989070        -0.006409
1643124157.0000    308034.800000       -49.641700    308807.100000      -169.850700    307202.000000        70.169980       343.169000       -32.284690       357.013000      -154.080200       341.441000        85.783420        59.989410        -0.033188
1643124158.0000    308087.300000       -53.192730    308870.300000      -173.403900    307239.100000        66.618250       339.529700       -35.636280       354.955700      -157.468000       338.175900        82.452210        59.991350        -0.018997
1643124159.0000    308121.300000       -55.730810    308904.500000      -175.938200    307263.600000        64.083500       339.031300       -38.088570       352.273700      -159.685800       336.638500        79.918140        59.992910        -0.052872
1643124160.0000    308082.700000       -57.299500    308848.000000      -177.513500    307211.900000        62.513920       339.581700       -39.793400       354.720900      -161.326000       338.097400        78.260590        59.996850        -0.008469
1643124161.0000    308144.300000       -58.395210    308914.300000      -178.604700    307283.500000        61.419260       338.198000       -40.802940       352.333300      -162.496400       336.224100        77.380680        59.998950         0.062027
1643124162.0000    308102.600000       -58.786080    308851.800000      -178.997400    307245.000000        61.033490       341.547100       -41.347450       354.844200      -162.987400       340.197500        76.792420        59.998590        -0.045776
1643124163.0000    308077.600000       -58.786450    308848.200000      -179.000900    307214.300000        61.026230       340.821700       -41.401890       354.454600      -162.891600       339.535100        76.714870        60.000390        -0.053101
1643124164.0000    308098.200000       -58.807090    308864.100000      -179.020000    307230.700000        61.004880       342.372400       -41.476180       356.065800      -163.097200       340.057500        76.677750        60.000900         0.059052
1643124165.0000    308167.000000       -59.051450    308950.300000      -179.266500    307290.900000        60.756530       340.000700       -41.437980       353.278300      -163.304700       338.586300        76.533130        60.001160         0.203476
1643124166.0000    308012.600000       -59.180640    308843.400000      -179.383200    307226.200000        60.632590       341.518000       -41.881910       355.252800      -163.606300       340.857300        76.275050        60.003490         0.173035
1643124167.0000    308048.300000       -60.055410    308803.000000       179.746800    307255.400000        59.768220       342.864600       -42.881680       356.156000      -164.505300       339.821100        75.305150        59.997200         0.038681
1643124168.0000    308066.700000       -61.712450    308861.300000       178.091500    307308.200000        58.110750       339.263300       -44.159500       352.769000      -165.928100       337.590800        73.942860        59.995840         0.056534
1643124169.0000    308091.100000       -63.492540    308825.100000       176.306800    307257.400000        56.329190       339.160200       -46.105120       352.727100      -167.659300       336.583300        72.190350        59.994440         0.010529
1643124170.0000    308061.500000       -66.126880    308822.600000       173.679200    307268.400000        53.698670       339.636900       -48.607760       352.777700      -170.321100       337.232800        69.466220        59.990820        -0.077362
1643124171.0000    308072.200000       -69.205310    308849.100000       170.594700    307286.000000        50.616520       340.781500       -51.733650       353.914400      -173.462100       338.236700        66.324970        59.992070         0.075760
1643124172.0000    308038.500000       -72.983970    308798.900000       166.819800    307245.600000        46.842780       341.852800       -55.769360       355.973600      -177.304800       340.328300        62.467650        59.987650        -0.040512          *
1643124173.0000    308081.200000       -77.903240    308849.500000       161.899700    307289.900000        41.918320       342.236200       -60.423470       355.214900       177.836000       339.854200        57.596230        59.986860         0.085373
1643124174.0000    307993.700000       -83.525700    308781.300000       156.275300    307207.800000        36.291720       342.795500       -66.365580       357.615500       172.063300       343.022700        52.054790        59.982290        -0.074615
1643124175.0000    308117.100000       -90.304740    308876.100000       149.498000    307303.800000        29.514550       345.428300       -72.814230       358.201400       165.461300       343.364900        45.375100        59.980700         0.083771
1643124176.0000    308081.000000       -97.812320    308862.200000       141.986600    307294.100000        22.008090       345.890400       -80.303500       360.226400       158.155400       344.450300        37.867140        59.978980         0.026550
1643124177.0000    308098.200000      -105.831600    308896.800000       133.976900    307348.400000        13.990060       346.139400       -88.543910       359.646500       150.039200       344.458300        29.885330        59.978330         0.043030
1643124178.0000    308099.800000      -113.701800    308867.400000       126.101100    307282.900000         6.122242       347.973100       -96.186290       361.900200       142.076300       346.691500        22.133200        59.978800         0.058365
1643124179.0000    308016.500000      -122.261100    308833.300000       117.542800    307241.400000        -2.445568       351.253400      -104.880000       364.130900       133.457800       349.245100        13.401670        59.974850         0.024948
