Terminal: LT 500  S.DA MESA - SAMAMBAIA C1
Tensão base: 500 kV
SOC inicial: 1643124120
SOC final: 1643124179
Taxa: 1 fasores/s
Total de frames faltantes: - 

Tempo_(SOC)           VA_mod_(V)     VA_ang_(graus)     VB_mod_(V)     VB_ang_(graus)     VC_mod_(V)     VC_ang_(graus)     IA_mod_(A)     IA_ang_(graus)     IB_mod_(A)     IB_ang_(graus)     IC_mod_(A)     IC_ang_(graus)     Frequência        Delta_Freq     Faltante
1643124120.0000    307216.000000        81.270720    307180.800000      -158.654800    302237.400000       -38.091610       939.834700        91.678180       938.413400      -147.413300       967.217800       -29.915990        59.973630        -0.123359
1643124121.0000    307161.300000        72.240970    307134.700000      -167.676600    302137.400000       -47.115190       940.264500        82.602070       940.400900      -156.319300       968.240100       -39.044140        59.973210        -0.042707
1643124122.0000    307131.900000        62.802190    307113.600000      -177.110200    302082.200000       -56.549070       940.585300        73.196480       941.427900      -165.795200       970.511400       -48.531430        59.972810        -0.024145
1643124123.0000    307157.500000        52.792130    307135.000000       172.882400    302080.400000       -66.555890       940.698500        63.138580       940.707100      -175.862700       970.160300       -58.427670        59.971010        -0.175843
1643124124.0000    307218.100000        42.460110    307182.300000       162.555000    302129.500000       -76.887520       938.384100        52.838210       938.612700       173.836000       968.396700       -68.725610        59.970670        -0.048508
1643124125.0000    307111.200000        31.832390    307091.500000       151.931700    301984.100000       -87.509820       941.231100        42.238760       940.852100       163.232800       970.591200       -79.353750        59.968790         0.016833
1643124126.0000    307116.400000        20.692650    307095.000000       140.776900    302008.500000       -98.649610       941.954600        31.112210       939.696700       152.047700       968.425300       -90.418370        59.967700        -0.095248
1643124127.0000    307163.400000         9.111264    307117.600000       129.200200    302023.100000      -110.234200       941.338100        19.517410       941.784600       140.409600       971.335300      -102.187700        59.967070        -0.035159
1643124128.0000    307371.700000        -2.305673    307310.900000       117.789000    302193.300000      -121.646300       937.327500         8.128633       937.365300       129.139500       967.923200      -113.566300        59.968690        -0.019133
1643124129.0000    307143.900000       -13.488250    307094.800000       106.600700    301991.000000      -132.830900       941.685100        -3.167269       942.010900       117.900900       970.585300      -124.736200        59.967540        -0.094946
1643124130.0000    307176.200000       -24.952360    307116.800000        95.137710    302008.900000      -144.293700       940.594700       -14.596530       942.307100       106.334600       969.530500      -136.130000        59.966610        -0.076496
1643124131.0000    307052.000000       -36.462730    307014.700000        83.629070    301858.500000      -155.798900       940.029200       -26.059620       940.726400        94.929630       968.669500      -147.681200        59.966190        -0.180470
1643124132.0000    306909.100000       -48.543790    306834.100000        71.544130    301637.600000      -167.876400       944.732500       -38.251220       945.804100        82.717020       973.051100      -159.890900        59.964400        -0.080019
1643124133.0000    307018.400000       -61.642770    306963.800000        58.445520    301706.800000       179.035000       941.894000       -51.239780       944.242700        69.754240       974.051700      -172.863000        59.963340        -0.025382
1643124134.0000    307097.600000       -75.293880    307036.300000        44.792020    301801.300000       165.382400       939.996300       -64.845190       943.095800        56.075780       971.110000       173.417400        59.961340         0.057904
1643124135.0000    306965.300000       -89.461260    306918.200000        30.623610    301662.100000       151.218500       944.264400       -79.136990       944.267200        41.839390       972.830400       159.341000        59.958760        -0.033502
1643124136.0000    307173.500000      -104.049300    307130.800000        16.043420    301887.700000       136.624500       939.800900       -93.805630       939.742200        27.305620       970.583300       144.647000        59.959940         0.031104
1643124137.0000    307077.500000      -117.972000    307032.300000         2.123922    301761.000000       122.700100       943.002700      -107.616800       943.091100        13.349680       970.868400       130.777500        59.961170        -0.041938
1643124138.0000    306937.800000      -131.217700    306874.800000       -11.123180    301470.600000       109.469500       945.507500      -120.956200       947.113000         0.052966       974.745700       117.482700        59.962270        -0.046326
1643124139.0000    307089.400000      -144.075500    306981.900000       -23.975100    301558.800000        96.618660       943.808300      -133.806500       943.569900       -12.804950       972.987000       104.660700        59.964430         0.016528
1643124140.0000    306944.700000      -156.510000    306852.200000       -36.410030    301538.700000        84.164940       945.795300      -146.210600       947.312400       -25.140690       976.597900        92.195480        59.965000        -0.011544
1643124141.0000    306991.900000      -168.615900    306872.200000       -48.519830    301486.300000        72.070450       944.011200      -158.341500       944.101000       -37.276430       972.911100        80.047590        59.964940         0.003354
1643124142.0000    306942.900000       179.724800    306805.800000       -60.176090    301315.300000        60.427970       947.155900      -170.008200       946.433500       -49.009780       975.572500        68.403590        59.967450        -0.040476
1643124143.0000    307090.200000       168.487200    306946.100000       -71.415570    301318.300000        49.207970       945.877600       178.737900       945.660500       -60.271180       973.805400        57.209840        59.969200        -0.008579
1643124144.0000    307123.600000       157.953500    306914.400000       -81.949840    301350.000000        38.660100       945.062500       168.229400       945.244900       -70.788590       972.779100        46.618890        59.970970        -0.057498
1643124145.0000    306959.300000       148.002900    306768.900000       -91.906140    301457.200000        28.674990       946.725800       158.190200       947.926900       -80.746370       974.927100        36.550140        59.970360        -0.284027
1643124146.0000    306980.300000       138.319900    306855.100000      -101.600800    301419.500000        19.015640       945.385300       148.624000       947.985100       -90.453090       973.955900        26.937640        59.970840        -0.241207
1643124147.0000    306911.000000       128.803600    306953.000000      -111.100700    301501.500000         9.517777       947.488600       138.989100       948.618500       -99.997760       977.770100        17.465990        59.975060        -0.030293
1643124148.0000    306966.800000       119.276900    306994.400000      -120.628100    301525.700000        -0.009980       945.517700       129.541800       945.543500      -109.409000       974.801900         7.903242        59.974070        -0.001068
1643124149.0000    307052.700000       110.199300    307093.900000      -129.710700    301673.300000        -9.090544       944.030500       120.511600       944.654200      -118.476900       974.041000        -1.087111        59.975360        -0.042761
1643124150.0000    307101.500000       101.646500    307127.000000      -138.261200    301742.600000       -17.650760       944.880400       111.908800       945.139800      -127.064100       975.294700        -9.672452        59.976410        -0.091424
1643124151.0000    307138.700000        94.017040    307185.100000      -145.898500    301833.100000       -25.280760       941.996300       104.385200       942.673300      -134.722300       970.793300       -17.230820        59.980210         0.023562
1643124152.0000    307002.300000        87.188670    307063.200000      -152.725100    301385.300000       -32.065910       943.449900        97.483310       944.905900      -141.552900       973.465300       -24.198730        59.981150        -0.134692
1643124153.0000    307096.400000        80.730620    307145.300000      -159.184200    301631.800000       -38.545310       943.546800        91.094120       942.605600      -147.956000       973.786000       -30.490230        59.982080         0.015828
1643124154.0000    307199.000000        74.666110    307223.900000      -165.249800    301886.300000       -44.634740       941.552700        84.993420       941.214800      -153.990800       970.148900       -36.496900        59.984810        -0.085259
1643124155.0000    307184.200000        69.640140    307210.600000      -170.273800    301777.700000       -49.648730       942.504800        79.892140       941.769700      -159.055300       972.798800       -41.550010        59.986280         0.017619
1643124156.0000    307136.200000        65.346580    307165.800000      -174.568800    301691.300000       -53.932440       941.970300        75.562480       942.007100      -163.276000       971.267100       -45.994370        59.986640        -0.296599
1643124157.0000    307071.700000        61.599490    307070.000000      -178.321900    301570.300000       -57.685120       944.140000        71.851140       943.014900      -167.062600       971.969100       -49.693680        59.988990         0.002350
1643124158.0000    307197.700000        58.078940    307211.800000       178.159000    301759.100000       -61.209660       942.676200        68.448120       942.899600      -170.610600       969.869100       -53.176140        59.991390        -0.053370
1643124159.0000    307324.300000        55.556970    307330.600000       175.639800    301973.400000       -63.745960       940.337100        65.944490       938.998000      -173.109800       967.772200       -55.747960        59.993660         0.078848
1643124160.0000    307177.300000        53.952830    307183.700000       174.028500    301686.800000       -65.325670       942.791900        64.293680       942.020900      -174.718200       971.049000       -57.334770        59.995970        -0.120089
1643124161.0000    307288.000000        52.902890    307297.800000       172.981800    301884.600000       -66.389020       941.510100        63.227120       940.782800      -175.787000       970.088500       -58.438070        59.997250        -0.111079
1643124162.0000    307173.500000        52.460380    307222.200000       172.528500    301922.400000       -66.845990       939.591600        62.762560       941.501900      -176.260500       970.523100       -58.815560        59.997780        -0.110316
1643124163.0000    307144.200000        52.475620    307196.400000       172.550400    301938.700000       -66.835890       941.175300        62.875730       940.151200      -176.275400       970.082300       -58.872300        60.000000        -0.201502
1643124164.0000    307163.200000        52.455530    307237.800000       172.530800    301780.800000       -66.823390       941.831000        62.895130       942.699300      -176.230200       973.301200       -58.865250        59.999810        -0.116066
1643124165.0000    307287.000000        52.223690    307402.500000       172.311900    301915.200000       -67.048870       938.434600        62.604390       939.833700      -176.413000       969.107300       -59.001890        60.003220         0.479384
1643124166.0000    307213.600000        52.080420    307101.200000       172.182300    301699.800000       -67.228290       943.088100        62.392300       942.844600      -176.570300       971.178100       -59.113190        60.003230         0.100643
1643124167.0000    307106.900000        51.197010    307053.100000       171.260000    301681.300000       -68.103920       943.466900        61.525130       943.880400      -177.504800       973.023200       -60.154660        59.993600        -0.387454
1643124168.0000    307372.700000        49.599900    307236.400000       169.679600    302024.900000       -69.735790       938.644200        60.019230       939.455300      -179.092500       966.689300       -61.563860        59.995320        -0.129762
1643124169.0000    307279.600000        47.799870    307211.300000       167.872400    301957.800000       -71.523150       938.595600        58.159410       940.881800       179.225100       967.751500       -63.502060        59.993210        -0.101757
1643124170.0000    307290.200000        45.208840    307165.200000       165.279100    301957.300000       -74.124370       941.606700        55.597720       939.100200       176.545500       967.967000       -65.987940        59.989540        -0.241322
1643124171.0000    307305.600000        42.089280    307180.800000       162.164000    301731.800000       -77.210800       939.480800        52.478650       939.568200       173.496400       969.256200       -69.137820        59.991010        -0.080845
1643124172.0000    307230.100000        38.235550    307089.400000       158.304400    301687.600000       -81.069570       942.664600        48.547030       940.913300       169.559300       970.867900       -73.112110        59.987220        -0.017547
1643124173.0000    307272.900000        33.405350    307144.800000       153.481900    301762.500000       -85.903850       939.277400        43.792980       940.550600       164.800400       969.986000       -77.852310        59.985090        -0.068847
1643124174.0000    307126.400000        27.754220    307003.900000       147.830500    301691.400000       -91.565850       942.674400        38.024680       941.599900       159.030200       970.079600       -83.569970        59.981330        -0.204219
1643124175.0000    307275.700000        21.001300    307155.400000       141.081300    301969.700000       -98.339340       941.397300        31.378740       941.020900       152.325800       969.854500       -90.304500        59.979800         0.056022
1643124176.0000    307282.900000        13.502620    307171.000000       133.579100    302007.000000      -105.839100       941.523700        23.815190       940.630000       144.809100       969.846400       -97.736260        59.978770        -0.094050
1643124177.0000    307451.500000         5.519576    307261.300000       125.610300    302054.800000      -113.824900       937.799500        15.870340       938.373000       136.849200       965.885800      -105.621300        59.977800         0.093309
1643124178.0000    307358.500000        -2.341297    307227.400000       117.739000    301843.300000      -121.653200       939.750400         8.045741       939.361100       128.959500       967.981400      -113.623900        59.978530         0.027243
1643124179.0000    307165.500000       -10.921420    307016.500000       109.168700    301767.800000      -130.255900       942.686700        -0.616511       943.025800       120.399800       971.654400      -122.211200        59.972790        -0.158647
