Terminal: LT 500  CLAUDIA - PARANATINGA C3
Tensão base: 500 kV
SOC inicial: 1643124120
SOC final: 1643124179
Taxa: 1 fasores/s
Total de frames faltantes: - 

Tempo_(SOC)           VA_mod_(V)     VA_ang_(graus)     VB_mod_(V)     VB_ang_(graus)     VC_mod_(V)     VC_ang_(graus)     IA_mod_(A)     IA_ang_(graus)     IB_mod_(A)     IB_ang_(graus)     IC_mod_(A)     IC_ang_(graus)     Frequência        Delta_Freq     Faltante
1643124120.0000    304412.900000       -24.083540    304114.000000      -143.657700    306509.300000        96.091820      1204.435000       -18.001020      1170.336000      -138.064100      1204.700000       103.991500        59.975360        -0.012589
1643124121.0000    304527.200000       -33.206160    304248.100000      -152.783500    306643.300000        86.963620      1203.262000       -27.198390      1169.193000      -147.229900      1203.998000        94.763990        59.976320         0.014648
1643124122.0000    304410.600000       -42.586420    304140.400000      -162.158200    306535.300000        77.586300      1204.313000       -36.539680      1170.104000      -156.573700      1204.589000        85.455930        59.973190         0.021744
1643124123.0000    304471.400000       -52.647180    304190.800000      -172.227900    306542.200000        67.523590      1204.099000       -46.567600      1170.210000      -166.623900      1204.862000        75.408950        59.972920         0.038681
1643124124.0000    304358.000000       -62.856690    304074.300000       177.566900    306448.200000        57.312000      1204.042000       -56.769390      1170.758000      -176.801600      1205.993000        65.199270        59.970430        -0.013046
1643124125.0000    304268.800000       -73.516860    303964.400000       166.906100    306358.700000        46.652880      1204.964000       -67.413510      1171.489000       172.535300      1206.052000        54.561200        59.967500        -0.018311
1643124126.0000    304246.500000       -84.661240    303958.100000       155.757200    306342.500000        35.508080      1205.187000       -78.529560      1171.550000       161.414000      1205.954000        43.445240        59.970320         0.055847
1643124127.0000    304386.300000       -96.409030    304085.100000       144.020000    306496.500000        23.764300      1202.564000       -90.315240      1168.269000       149.639100      1202.529000        31.671990        59.968800         0.015106
1643124128.0000    304540.600000      -107.659400    304244.800000       132.770100    306639.900000        12.512680      1202.747000      -101.608200      1168.480000       138.334700      1203.452000        20.378230        59.969490         0.021286
1643124129.0000    304441.500000      -119.041800    304138.000000       121.383200    306514.800000         1.132976      1202.039000      -112.933600      1168.716000       127.016100      1203.262000         9.041009        59.966270         0.000000
1643124130.0000    304290.800000      -130.384800    303996.300000       110.040100    306374.700000       -10.214620      1203.842000      -124.266300      1170.745000       115.696700      1204.965000        -2.292421        59.967500        -0.003662
1643124131.0000    304289.800000      -141.868400    304020.500000        98.553750    306373.700000       -21.700320      1204.884000      -135.775600      1170.700000       104.187400      1205.083000       -13.809800        59.968110         0.018311
1643124132.0000    304503.400000      -154.207200    304210.800000        86.216240    306591.500000       -34.037860      1202.140000      -148.176200      1168.131000        91.778430      1202.705000       -26.204810        59.964310        -0.026550
1643124133.0000    304513.300000      -167.171500    304229.800000        73.250320    306591.800000       -47.001710      1202.591000      -161.137700      1168.988000        78.833490      1203.593000       -39.146970        59.964130         0.026093
1643124134.0000    304414.700000       179.282600    304120.600000        59.701910    306484.700000       -60.550440      1203.685000      -174.665800      1169.938000        65.286230      1204.212000       -52.719380        59.962700         0.017624
1643124135.0000    304541.800000       164.951800    304259.500000        45.374550    306642.700000       -74.876140      1202.057000       170.963500      1167.912000        50.906590      1202.716000       -67.071440        59.958760        -0.027695
1643124136.0000    304509.900000       150.475500    304225.800000        30.899610    306587.700000       -89.351110      1202.658000       156.491300      1169.089000        36.461540      1204.116000       -81.501630        59.961110         0.043945
1643124137.0000    304542.300000       136.464400    304253.900000        16.887830    306636.600000      -103.365700      1202.793000       142.472000      1168.488000        22.439300      1203.736000       -95.532420        59.962020         0.011902
1643124138.0000    304466.700000       123.116000    304183.600000         3.540538    306558.100000      -116.713400      1202.862000       129.165900      1168.578000         9.127103      1203.864000      -108.825400        59.962800         0.090408
1643124139.0000    304557.000000       110.315100    304261.000000        -9.259089    306633.700000      -129.513000      1202.758000       116.363600      1168.638000        -3.673924      1203.375000      -121.655100        59.964230        -0.015106
1643124140.0000    304497.800000        97.746800    304218.000000       -21.825800    306604.600000      -142.083800      1201.564000       103.819700      1168.175000       -16.232920      1202.249000      -134.204200        59.964710        -0.024261
1643124141.0000    304420.300000        85.752790    304114.600000       -33.819740    306529.300000      -154.073000      1202.458000        91.811070      1168.908000       -28.211920      1203.581000      -146.191400        59.965960        -0.035019
1643124142.0000    304453.600000        73.972600    304176.900000       -45.604140    306540.400000      -165.857900      1202.010000        80.057910      1168.001000       -39.950630      1202.024000      -157.970600        59.967270         0.010300
1643124143.0000    304420.200000        62.785220    304146.600000       -56.788970    306520.400000      -177.046500      1202.581000        68.861380      1167.980000       -51.170280      1202.625000      -169.138600        59.970720         0.029068
1643124144.0000    304574.000000        52.214390    304254.700000       -67.356610    306670.600000       172.389800      1200.175000        58.224170      1166.081000       -61.838580      1200.585000      -179.797400        59.970240        -0.085831
1643124145.0000    304454.200000        42.240390    304154.300000       -77.332380    306549.300000       162.413300      1202.448000        48.311750      1168.067000       -71.719720      1202.973000       170.300200        59.971730        -0.021286
1643124146.0000    304444.400000        32.600730    304164.600000       -86.964350    306558.300000       152.777500      1203.195000        38.669300      1169.322000       -81.381580      1204.223000       160.652100        59.973480         0.008240
1643124147.0000    304382.000000        23.048280    304087.500000       -96.526410    306458.800000       143.222900      1203.066000        29.141240      1169.641000       -90.900600      1203.756000       151.120100        59.971600         0.024948
1643124148.0000    304562.000000        13.539530    304233.700000      -106.031300    306628.400000       133.716400      1201.687000        19.581530      1168.043000      -100.479700      1202.349000       141.580900        59.975220         0.041885
1643124149.0000    304630.800000         4.484179    304319.100000      -115.091900    306719.500000       124.656800      1201.055000        10.501360      1166.969000      -109.556000      1201.788000       132.468100        59.975370        -0.025864
1643124150.0000    304557.900000        -4.030465    304240.500000      -123.600600    306653.900000       116.149000      1201.172000         1.998709      1167.452000      -118.016300      1201.842000       124.004800        59.977470         0.002060
1643124151.0000    304552.500000       -11.516160    304270.300000      -131.093500    306653.800000       108.654300      1202.745000        -5.499079      1168.979000      -125.505500      1202.870000       116.488800        59.979130         0.019913
1643124152.0000    304554.000000       -18.443370    304266.400000      -138.020100    306640.700000       101.725600      1202.355000       -12.436440      1168.614000      -132.453000      1202.893000       109.560900        59.981750        -0.020142
1643124153.0000    304407.200000       -24.831300    304107.800000      -144.407200    306458.500000        95.338910      1202.660000       -18.769420      1168.714000      -138.807300      1203.284000       103.200700        59.982840         0.015106
1643124154.0000    304586.800000       -30.831910    304260.600000      -150.411800    306658.200000        89.339220      1202.266000       -24.811320      1168.580000      -144.854400      1203.501000        97.163040        59.987220         0.025406
1643124155.0000    304544.300000       -35.853620    304258.000000      -155.428000    306636.000000        84.319150      1203.133000       -29.834850      1169.343000      -149.865500      1203.754000        92.168670        59.988630         0.063400
1643124156.0000    304518.200000       -40.163640    304219.300000      -159.743200    306592.300000        80.004770      1201.895000       -34.118410      1168.424000      -154.165100      1202.697000        87.855080        59.989050        -0.013733
1643124157.0000    304384.700000       -43.916080    304081.100000      -163.490700    306478.600000        76.254770      1203.263000       -37.850510      1169.521000      -157.876600      1204.239000        84.146620        59.986650        -0.069809
1643124158.0000    304628.300000       -47.484970    304306.200000      -167.062200    306720.000000        72.688800      1200.845000       -41.454240      1167.176000      -161.502700      1201.195000        80.525020        59.992110         0.003204
1643124159.0000    304537.100000       -49.872480    304231.500000      -169.449500    306621.800000        70.297040      1201.750000       -43.812760      1167.790000      -163.828300      1201.859000        78.185770        59.993820         0.014420
1643124160.0000    304569.100000       -51.621050    304268.700000      -171.197900    306667.300000        68.551420      1201.143000       -45.582050      1167.186000      -165.615500      1202.114000        76.413990        59.995510        -0.022659
1643124161.0000    304466.700000       -52.571960    304157.800000      -172.145400    306533.800000        67.602070      1200.667000       -46.503010      1166.854000      -166.554700      1201.592000        75.474800        59.995780        -0.057678
1643124162.0000    304495.400000       -53.078840    304206.400000      -172.658400    306569.100000        67.090330      1200.311000       -46.993180      1167.575000      -167.026500      1201.312000        74.997080        59.997390        -0.008698
1643124163.0000    304376.300000       -53.062270    304092.600000      -172.640500    306449.600000        67.107940      1201.166000       -46.938110      1167.628000      -166.966300      1202.067000        75.062420        60.001430         0.013046
1643124164.0000    304508.100000       -53.156280    304199.000000      -172.733900    306573.400000        67.015500      1201.053000       -47.029560      1167.771000      -167.064300      1201.793000        74.951080        60.001160         0.023117
1643124165.0000    304436.000000       -53.182740    304122.800000      -172.761300    306497.800000        66.987830      1202.419000       -47.083170      1168.689000      -167.124000      1204.013000        74.922630        60.000940         0.045547
1643124166.0000    304426.500000       -53.492830    304131.700000      -173.066100    306507.000000        66.679760      1201.510000       -47.427070      1167.924000      -167.466000      1202.464000        74.548840        59.997730        -0.044403
1643124167.0000    304352.400000       -54.437120    304030.200000      -174.013800    306424.200000        65.735890      1202.240000       -48.284410      1168.297000      -168.311900      1202.961000        73.702900        59.994530        -0.023804
1643124168.0000    304413.200000       -55.834520    304095.400000      -175.408700    306483.000000        64.340300      1200.961000       -49.702700      1167.173000      -169.772000      1201.315000        72.276050        59.995360         0.001373
1643124169.0000    304418.300000       -57.736660    304102.000000      -177.310600    306493.500000        62.435360      1199.695000       -51.568130      1166.170000      -171.628700      1200.234000        70.373760        59.993710         0.036163
1643124170.0000    304532.700000       -60.300950    304209.000000      -179.876600    306591.000000        59.871780      1200.000000       -54.216150      1166.598000      -174.259100      1200.800000        67.739900        59.992270        -0.033646
1643124171.0000    304438.100000       -63.413290    304125.100000       177.009400    306489.800000        56.764130      1201.400000       -57.299340      1167.841000      -177.326800      1202.082000        64.690240        59.988220        -0.060883
1643124172.0000    304541.300000       -67.354570    304215.600000       173.070900    306604.100000        52.817860      1200.079000       -61.259410      1166.473000       178.704300      1201.391000        60.721730        59.988530         0.012589
1643124173.0000    304474.600000       -67.801440    304160.100000       172.621000    306539.700000        52.368900      1200.033000       -61.682900      1166.280000       178.282100      1200.488000        60.294980        59.987050         0.025406          *
1643124174.0000    304474.600000       -67.801440    304160.100000       172.621000    306539.700000        52.368900      1200.033000       -61.682900      1166.280000       178.282100      1200.488000        60.294980        59.987050         0.025406          *
1643124175.0000    304474.600000       -67.801440    304160.100000       172.621000    306539.700000        52.368900      1200.033000       -61.682900      1166.280000       178.282100      1200.488000        60.294980        59.987050         0.025406          *
1643124176.0000    304474.600000       -67.801440    304160.100000       172.621000    306539.700000        52.368900      1200.033000       -61.682900      1166.280000       178.282100      1200.488000        60.294980        59.987050         0.025406          *
1643124177.0000    304474.600000       -67.801440    304160.100000       172.621000    306539.700000        52.368900      1200.033000       -61.682900      1166.280000       178.282100      1200.488000        60.294980        59.987050         0.025406          *
1643124178.0000    304474.600000       -67.801440    304160.100000       172.621000    306539.700000        52.368900      1200.033000       -61.682900      1166.280000       178.282100      1200.488000        60.294980        59.987050         0.025406          *
1643124179.0000    304474.600000       -67.801440    304160.100000       172.621000    306539.700000        52.368900      1200.033000       -61.682900      1166.280000       178.282100      1200.488000        60.294980        59.987050         0.025406          *
