Terminal: LT 525  AREIA - C.NOVOS C1
Tensão base: 525 kV
SOC inicial: 1643124120
SOC final: 1643124179
Taxa: 1 fasores/s
Total de frames faltantes: - 

Tempo_(SOC)           VA_mod_(V)     VA_ang_(graus)     VB_mod_(V)     VB_ang_(graus)     VC_mod_(V)     VC_ang_(graus)     IA_mod_(A)     IA_ang_(graus)     IB_mod_(A)     IB_ang_(graus)     IC_mod_(A)     IC_ang_(graus)     Frequência        Delta_Freq     Faltante
1643124120.0000    313570.400000      -113.504500    313797.100000       126.870000    312199.300000         6.230077      1457.090000      -113.980800      1461.527000       126.442600      1473.068000         6.284538        59.974600        -0.009384
1643124121.0000    313512.100000      -122.607300    313843.300000       117.789600    312300.500000        -2.878930      1458.061000      -123.075400      1464.169000       117.294300      1473.431000        -2.882611        59.974790        -0.016937
1643124122.0000    313473.700000      -132.045600    313751.100000       108.346400    312208.300000       -12.312140      1458.472000      -132.481700      1464.693000       107.939500      1475.041000       -12.258000        59.972980         0.007553
1643124123.0000    313510.100000      -141.983500    313861.400000        98.420360    312343.700000       -22.253360      1456.286000      -142.430200      1460.755000        97.972010      1471.750000       -22.171930        59.972550         0.002975
1643124124.0000    313598.500000      -152.170000    313855.100000        88.226560    312367.300000       -32.431630      1455.973000      -152.615500      1461.389000        87.797530      1472.051000       -32.370530        59.971240         0.011444
1643124125.0000    313504.900000      -162.881900    313769.500000        77.488260    312150.300000       -43.156570      1456.712000      -163.304400      1461.716000        77.091350      1472.306000       -43.079150        59.970240         0.016937
1643124126.0000    313470.100000      -174.126100    313819.800000        66.258450    312215.000000       -54.402430      1456.506000      -174.559400      1460.734000        65.829320      1471.359000       -54.287300        59.967660        -0.018311
1643124127.0000    313483.700000       174.249400    313734.500000        54.659550    312295.100000       -66.003640      1458.672000       173.752800      1463.512000        54.180170      1474.769000       -65.993980        59.967720         0.016937
1643124128.0000    313527.000000       163.091800    313797.700000        43.478610    312253.700000       -77.172910      1457.474000       162.657200      1462.681000        43.073020      1473.332000       -77.111830        59.968250         0.011215
1643124129.0000    313516.200000       151.540800    313808.600000        31.914290    312168.800000       -88.735170      1460.878000       151.082200      1466.068000        31.459370      1475.893000       -88.693130        59.968350         0.041428
1643124130.0000    313659.600000       140.244800    313962.800000        20.648640    312462.900000      -100.016400      1456.477000       139.773200      1462.073000        20.175860      1472.592000       -99.991430        59.969650         0.057678
1643124131.0000    313367.900000       128.628100    313680.200000         9.008716    312051.100000      -111.649300      1459.491000       128.173900      1464.680000         8.528889      1474.324000      -111.611200        59.966830        -0.011673
1643124132.0000    313412.300000       116.323000    313695.900000        -3.308202    312024.400000      -123.957800      1459.691000       115.859600      1464.778000        -3.732708      1475.697000      -123.893800        59.965710         0.007324
1643124133.0000    313386.000000       103.380900    313778.600000       -16.235800    312135.500000      -136.908900      1459.856000       102.936900      1464.651000       -16.686080      1475.090000      -136.836000        59.962230        -0.099564
1643124134.0000    313420.200000        89.840890    313682.000000       -29.790740    312035.300000      -150.436600      1459.922000        89.396530      1465.134000       -30.260950      1474.249000      -150.410500        59.961580        -0.002289
1643124135.0000    313567.000000        75.570140    313837.800000       -44.047580    312242.600000      -164.697500      1458.656000        75.106150      1464.075000       -44.514100      1473.946000      -164.656300        59.960040        -0.005722
1643124136.0000    313536.600000        61.091620    313830.400000       -58.516540    312281.800000      -179.178500      1460.783000        60.608080      1465.859000       -58.982790      1476.538000      -179.160600        59.959400        -0.035019
1643124137.0000    313505.000000        47.017570    313746.000000       -72.588240    312232.700000       166.759400      1459.472000        46.601040      1464.569000       -73.015430      1475.280000       166.806900        59.962950         0.050812
1643124138.0000    313669.600000        33.572770    313922.400000       -86.021360    312471.500000       153.314600      1459.922000        33.095720      1465.697000       -86.512490      1475.795000       153.312200        59.963580        -0.026093
1643124139.0000    313438.400000        20.852570    313734.900000       -98.774280    312097.100000       140.572300      1459.707000        20.382570      1465.157000       -99.223170      1475.516000       140.609400        59.965740         0.051727
1643124140.0000    313541.100000         8.249189    313860.500000      -111.353600    312331.900000       127.977200      1459.594000         7.752411      1464.577000      -111.839800      1475.437000       127.997400        59.965730         0.016022
1643124141.0000    313455.000000        -3.783437    313688.600000      -123.397400    312132.000000       115.950700      1459.792000        -4.216396      1464.520000      -123.824600      1475.125000       116.031800        59.967770         0.026321
1643124142.0000    313453.900000       -15.540950    313714.200000      -135.164300    312088.100000       104.182000      1460.639000       -16.006900      1465.304000      -135.622100      1475.769000       104.256000        59.967350         0.005264
1643124143.0000    313534.200000       -26.696550    313850.500000      -146.301100    312296.000000        93.028790      1459.087000       -27.181630      1463.597000      -146.776000      1474.297000        93.078090        59.968860        -0.013046
1643124144.0000    313588.800000       -37.182330    313860.600000      -156.791800    312320.100000        82.552040      1459.458000       -37.634080      1464.405000      -157.253700      1474.800000        82.595810        59.971420         0.013046
1643124145.0000    313467.700000       -47.350320    313732.600000      -166.948600    312240.300000        72.389240      1460.271000       -47.782850      1466.603000      -167.406900      1476.176000        72.395920        59.972420         0.000916
1643124146.0000    313447.000000       -56.991570    313665.300000      -176.593400    312197.300000        62.748460      1460.167000       -57.437710      1465.324000      -177.033800      1476.114000        62.805720        59.975160         0.066834
1643124147.0000    313537.300000       -66.548260    313786.400000       173.842000    312258.700000        53.183860      1459.651000       -66.955150      1464.557000       173.438300      1475.002000        53.276680        59.973260        -0.024719
1643124148.0000    313483.900000       -75.926030    313696.000000       164.458900    312172.100000        43.810670      1458.593000       -76.339640      1463.524000       164.087200      1474.688000        43.919260        59.973400        -0.075989
1643124149.0000    313503.000000       -84.964450    313730.600000       155.419300    312145.800000        34.769290      1459.770000       -85.394000      1465.283000       155.006000      1475.409000        34.849370        59.975550         0.005493
1643124150.0000    313577.300000       -93.509600    313769.800000       146.874500    312208.000000        26.233750      1462.181000       -93.963290      1467.965000       146.434500      1478.432000        26.272570        59.977410         0.060196
1643124151.0000    313506.000000      -101.033500    313791.800000       139.365600    312271.800000        18.702260      1463.437000      -101.569800      1467.966000       138.820800      1479.094000        18.678730        59.980020         0.013046
1643124152.0000    313607.000000      -107.983900    313894.700000       132.412400    312357.400000        11.749510      1462.010000      -108.491600      1467.135000       131.913500      1477.870000        11.763170        59.981260        -0.041885
1643124153.0000    313531.400000      -114.392700    313872.300000       125.992900    312268.400000         5.325797      1462.746000      -114.832600      1468.119000       125.557600      1477.962000         5.380230        59.983530         0.044632
1643124154.0000    313477.800000      -120.214700    313725.500000       120.159000    312081.400000        -0.488996      1463.090000      -120.654900      1467.415000       119.749500      1478.492000        -0.403688        59.985100        -0.013275
1643124155.0000    313540.500000      -125.324800    313814.200000       115.064000    312225.200000        -5.591340      1466.978000      -125.883300      1472.777000       114.548100      1483.645000        -5.647544        59.987410         0.014420
1643124156.0000    313490.000000      -129.427100    313810.800000       110.972400    312245.600000        -9.701424      1464.152000      -129.956700      1469.474000       110.432400      1479.940000        -9.706235        59.988310        -0.021515
1643124157.0000    313560.000000      -133.371700    313839.700000       107.022200    312284.600000       -13.641870      1465.334000      -133.855600      1470.886000       106.550000      1481.582000       -13.640620        59.990290         0.040283
1643124158.0000    313516.500000      -136.802200    313810.400000       103.593200    312238.100000       -17.071530      1465.742000      -137.280900      1470.868000       103.116700      1481.256000       -17.061950        59.991830        -0.007782
1643124159.0000    313342.600000      -139.195200    313661.900000       101.214500    312127.000000       -19.458890      1466.162000      -139.660000      1471.955000       100.746600      1482.492000       -19.447120        59.993930         0.003433
1643124160.0000    313534.500000      -140.974800    313817.100000        99.413670    312212.900000       -21.247370      1467.025000      -141.477700      1471.824000        98.903940      1482.161000       -21.260370        59.996280        -0.029526
1643124161.0000    313443.200000      -141.880900    313730.900000        98.512710    312165.700000       -22.148550      1465.208000      -142.357500      1470.749000        98.063410      1481.392000       -22.128440        59.997800        -0.014648
1643124162.0000    313363.500000      -142.451000    313670.600000        97.932660    311997.800000       -22.727110      1469.014000      -142.972400      1474.086000        97.417080      1484.210000       -22.737140        59.997740        -0.089035
1643124163.0000    313278.000000      -142.556500    313498.800000        97.829680    311906.800000       -22.815330      1469.863000      -143.038700      1474.318000        97.361590      1485.255000       -22.787350        59.999680         0.007324
1643124164.0000    313315.200000      -142.530100    313683.800000        97.847400    311971.500000       -22.812010      1468.561000      -143.007700      1473.135000        97.369820      1483.631000       -22.768400        60.000860         0.002060
1643124165.0000    313331.900000      -142.533500    313708.800000        97.861310    312094.800000       -22.813920      1465.710000      -142.965900      1471.090000        97.430150      1481.499000       -22.751900        59.999080        -0.005264
1643124166.0000    313288.700000      -142.961400    313516.800000        97.445070    312032.900000       -23.214760      1467.282000      -143.434200      1473.633000        96.930250      1482.858000       -23.258640        59.997570        -0.030670
1643124167.0000    313264.000000      -143.945600    313661.100000        96.434770    311978.300000       -24.233810      1465.853000      -144.449900      1472.054000        95.944570      1482.077000       -24.264040        59.998290         0.042801
1643124168.0000    313274.300000      -145.057600    313721.500000        95.315950    311987.800000       -25.356560      1464.532000      -145.544200      1470.392000        94.847890      1480.293000       -25.338830        59.995330        -0.039825
1643124169.0000    313206.800000      -147.055900    313580.700000        93.352580    312044.700000       -27.327100      1468.063000      -147.582000      1472.245000        92.826410      1483.361000       -27.316430        59.993690         0.007553
1643124170.0000    313343.300000      -149.556800    313608.900000        90.836350    312054.600000       -29.817740      1466.565000      -150.074500      1471.930000        90.313900      1482.085000       -29.868270        59.991850         0.014191
1643124171.0000    313346.900000      -152.797500    313681.700000        87.583340    312040.400000       -33.076830      1464.761000      -153.252000      1470.398000        87.145000      1480.571000       -33.029530        59.989640        -0.013046
1643124172.0000    313340.900000      -156.743000    313583.700000        83.645170    312000.500000       -37.002090      1466.664000      -157.252400      1472.263000        83.113460      1481.878000       -37.043620        59.988670         0.040054
1643124173.0000    313327.000000      -161.492700    313650.900000        78.895480    312068.400000       -41.763320      1463.812000      -161.937200      1469.495000        78.470210      1479.936000       -41.700420        59.986140         0.004349
1643124174.0000    313319.300000      -167.429900    313571.900000        72.949920    311951.800000       -47.702550      1464.508000      -167.942500      1470.736000        72.501990      1481.847000       -47.719070        59.982240        -0.010986
1643124175.0000    313304.500000      -174.034600    313631.600000        66.362900    312079.300000       -54.306400      1464.878000      -174.499100      1470.557000        65.907800      1481.004000       -54.272530        59.980260        -0.017395
1643124176.0000    313275.900000       178.478000    313589.700000        58.881470    312077.600000       -61.784750      1462.603000       178.061100      1468.414000        58.471790      1478.985000       -61.701870        59.977530        -0.037308
1643124177.0000    313398.300000       170.726600    313652.800000        51.115670    312075.000000       -69.534480      1464.643000       170.210000      1470.990000        50.585140      1480.876000       -69.581540        59.978760         0.004807
1643124178.0000    313286.300000       162.723000    313553.000000        43.105510    311938.100000       -77.546180      1464.689000       162.243400      1469.455000        42.644710      1480.772000       -77.508690        59.977610         0.043259
1643124179.0000    313316.200000       153.929900    313638.100000        34.319100    312019.100000       -86.345880      1463.454000       153.493100      1469.168000        33.883810      1479.223000       -86.283100        59.975620         0.030670
