Terminal: LT 500  US. L.GONZAGA - P. AFONSO IV_SE CC2
Tensão base: 500 kV
SOC inicial: 1643124120
SOC final: 1643124179
Taxa: 1 fasores/s
Total de frames faltantes: - 

Tempo_(SOC)           VA_mod_(V)     VA_ang_(graus)     VB_mod_(V)     VB_ang_(graus)     VC_mod_(V)     VC_ang_(graus)     IA_mod_(A)     IA_ang_(graus)     IB_mod_(A)     IB_ang_(graus)     IC_mod_(A)     IC_ang_(graus)     Frequência        Delta_Freq     Faltante
1643124120.0000    314339.500000       -17.229380    314372.700000      -137.295900    313134.500000       102.616100       418.916500       178.154100       417.270400        59.479140       424.104800       -61.892220        59.975660         0.012589
1643124121.0000    314229.600000       -26.206590    314290.200000      -146.267900    313064.500000        93.637960       418.667400       168.850200       416.751500        50.416100       423.714900       -71.167600        59.972890        -0.023346
1643124122.0000    314170.900000       -35.631160    314240.100000      -155.693400    312998.300000        84.209880       419.642300       159.461200       418.528500        40.949260       424.124800       -80.498860        59.973720         0.010529
1643124123.0000    314178.400000       -45.603600    314209.600000      -165.673200    312961.100000        74.238520       421.904300       149.504200       418.976000        30.933910       425.312200       -90.527980        59.971340         0.011673
1643124124.0000    314251.800000       -55.969800    314276.800000      -176.033600    313037.600000        63.876270       420.247900       139.051000       418.450100        20.589830       425.493700      -100.828700        59.971740         0.013275
1643124125.0000    314237.800000       -66.612500    314290.900000       173.325100    313054.100000        53.229470       420.193100       128.566300       419.114700        10.095110       425.573500      -111.443200        59.971450         0.033875
1643124126.0000    314202.800000       -77.760210    314244.300000       162.171200    313003.600000        42.080430       420.815200       117.318000       417.838000        -1.114864       424.379500      -122.593900        59.968700        -0.012817
1643124127.0000    314156.200000       -89.296610    314224.700000       150.637300    312973.700000        30.544690       421.089600       105.736100       419.225300       -12.649540       425.823200      -134.263500        59.966420        -0.024033
1643124128.0000    314338.600000      -100.800800    314364.000000       139.137600    313132.200000        19.045190       422.690700        94.345270       419.867300       -23.927470       426.998000      -145.572400        59.970090         0.035248
1643124129.0000    314285.800000      -111.902500    314317.200000       128.028900    313061.000000         7.939515       419.095500        83.071130       418.753100       -35.117970       424.575500      -156.787200        59.968780        -0.011215
1643124130.0000    314248.100000      -123.409400    314317.500000       116.525000    313064.700000        -3.570803       419.882500        71.574080       417.223600       -46.742540       424.842700      -168.304700        59.966720        -0.041656
1643124131.0000    314171.600000      -134.894700    314247.200000       105.041300    312991.000000       -15.054530       422.315500        60.155580       420.460900       -58.176830       427.740100      -179.728800        59.967430        -0.054932
1643124132.0000    314259.300000      -146.945100    314261.100000        92.988970    313036.800000       -27.096790       419.213800        48.119690       417.136200       -70.311420       424.921700       168.192600        59.965200         0.007782
1643124133.0000    314171.200000      -160.093500    314171.400000        79.845580    312963.500000       -40.244390       418.962700        34.892960       417.914000       -83.631730       423.827100       154.846500        59.961940         0.016708
1643124134.0000    314172.700000      -173.732300    314205.800000        66.207910    312981.900000       -53.885380       422.379200        21.293140       420.655700       -97.206440       426.671300       141.500400        59.961960        -0.001373
1643124135.0000    314201.700000       172.127700    314217.800000        52.061650    312979.100000       -68.024260       419.541900         7.125531       418.010600      -111.342000       424.706500       127.137900        59.959260        -0.040054
1643124136.0000    314274.600000       157.489100    314303.700000        37.417950    313034.800000       -82.666270       418.609900        -7.407763       416.688800      -125.946700       423.861800       112.454200        59.960020         0.016022
1643124137.0000    314258.800000       143.701200    314345.900000        23.635170    313066.400000       -96.462200       421.381500       -21.086180       420.357500      -139.585400       427.397600        98.769020        59.962310        -0.001831
1643124138.0000    314364.000000       130.464100    314394.400000        10.398320    313140.900000      -109.688100       420.756300       -34.327250       419.665600      -152.829900       426.623100        85.756230        59.963760        -0.009842
1643124139.0000    314354.900000       117.502300    314384.900000        -2.561537    313138.300000      -122.648600       418.318600       -47.446050       416.877500      -165.791200       422.796600        72.603050        59.965020         0.038223
1643124140.0000    314262.500000       105.166100    314327.800000       -14.894140    313090.000000      -134.987200       419.876700       -59.812230       418.165500      -178.336200       424.847200        60.238910        59.964930        -0.021057
1643124141.0000    314311.000000        93.010750    314359.800000       -27.057850    313084.900000      -147.147000       419.489500       -71.943150       417.506100       169.522600       424.928000        48.102110        59.966940        -0.022430
1643124142.0000    314313.100000        81.413860    314373.600000       -38.653590    313102.000000      -158.748200       419.036700       -83.550610       418.815100       157.969800       425.154500        36.567680        59.967530         0.002975
1643124143.0000    314327.700000        70.162620    314369.700000       -49.901970    313107.800000      -169.991900       419.552800       -94.815180       418.217400       146.699900       424.622000        25.271580        59.970050         0.019684
1643124144.0000    314280.200000        59.596710    314350.800000       -60.462040    313119.200000       179.440900       419.734400      -105.296100       418.399600       136.222200       424.822100        14.761430        59.971460         0.008240
1643124145.0000    314262.100000        49.703670    314320.300000       -70.362750    313059.600000       169.546700       420.530600      -115.335300       419.456300       126.202700       424.470400         4.828548        59.972030        -0.037308
1643124146.0000    314257.000000        40.053080    314319.800000       -80.012500    313065.900000       159.895900       421.161800      -125.036000       419.509300       116.723400       425.519100        -4.931751        59.973100        -0.027924
1643124147.0000    314259.800000        30.567520    314294.900000       -89.497340    313057.300000       150.415100       420.338200      -134.451100       418.596500       107.008300       424.829400       -14.361810        59.973480         0.003662
1643124148.0000    314215.500000        21.038040    314272.100000       -99.036090    312989.800000       140.876600       421.483200      -144.060000       419.665300        97.501170       426.779400       -24.040940        59.973980         0.003433
1643124149.0000    314245.900000        11.931920    314266.600000      -108.134800    313017.700000       131.778000       419.963200      -152.973000       419.748000        88.581920       426.870100       -32.914370        59.975840         0.009155
1643124150.0000    314271.300000         3.322084    314283.900000      -116.743200    313040.000000       123.171000       420.310000      -161.455500       417.763800        79.990370       424.310200       -41.588950        59.976600        -0.024948
1643124151.0000    314336.200000        -4.350860    314371.100000      -124.421500    313098.200000       115.492500       420.965600      -169.038800       418.927700        72.254880       426.440900       -49.216720        59.980560         0.011902
1643124152.0000    314287.400000       -11.165340    314339.900000      -131.235200    313066.900000       108.676000       419.182500      -176.164300       417.094900        65.360160       423.860800       -56.127480        59.981710        -0.001602
1643124153.0000    314278.900000       -17.661640    314300.400000      -137.724600    313058.100000       102.185800       420.429700       177.457300       419.274000        58.942860       424.903200       -62.503410        59.982430         0.009384
1643124154.0000    314270.800000       -23.722820    314309.900000      -143.794700    313034.000000        96.119160       422.025300       171.517200       419.255600        52.892140       426.336000       -68.599000        59.984500        -0.004120
1643124155.0000    314306.400000       -28.731490    314338.000000      -148.792200    313106.300000        91.116260       420.783700       166.367400       419.163700        48.042920       425.232300       -73.476650        59.987010         0.006180
1643124156.0000    314314.800000       -33.034390    314362.000000      -153.100400    313105.400000        86.807910       422.572100       162.109100       419.890000        43.464940       427.840100       -77.910450        59.989300         0.015564
1643124157.0000    314238.200000       -36.691570    314283.600000      -156.763200    313029.000000        83.150440       422.940000       158.280300       421.631500        39.895150       427.026600       -81.505970        59.990270        -0.025635
1643124158.0000    314283.100000       -40.333310    314344.000000      -160.404600    313040.500000        79.503760       419.117000       154.757800       416.682200        36.331900       424.035600       -85.115630        59.990740         0.006638
1643124159.0000    314299.400000       -42.889530    314368.100000      -162.956400    313098.300000        76.950610       423.327700       152.350200       420.673400        33.878590       427.177800       -87.606870        59.994140        -0.011673
1643124160.0000    314281.900000       -44.419360    314331.800000      -164.493600    313046.200000        75.422290       421.956100       150.719300       420.225300        32.399900       427.280500       -89.226770        59.996750        -0.008011
1643124161.0000    314358.500000       -45.606450    314416.000000      -165.674300    313147.100000        74.234530       418.748100       149.649700       416.932300        31.230490       423.974800       -90.235050        59.998160         0.040283
1643124162.0000    314275.800000       -45.900670    314301.100000      -165.967700    313065.100000        73.945940       423.779600       149.165900       421.449900        30.837700       427.141300       -90.659580        59.999550        -0.003662
1643124163.0000    314274.300000       -45.920780    314312.800000      -165.986300    313078.100000        73.925370       422.595200       149.279100       421.422200        30.892810       427.989200       -90.774630        60.001060        -0.009842
1643124164.0000    314223.800000       -45.959000    314256.100000      -166.025200    313010.000000        73.887790       421.037400       149.138500       419.645800        30.768560       425.575300       -90.802920        59.998950         0.015564
1643124165.0000    314235.300000       -46.214230    314286.900000      -166.279600    313020.900000        73.630660       423.020200       148.873900       421.962000        30.528430       428.143300       -91.021830        59.999580         0.011673
1643124166.0000    314178.300000       -46.293260    314220.400000      -166.358000    312966.100000        73.550820       424.504000       148.742800       422.891000        30.400650       429.477000       -91.133290        59.999690        -0.005493
1643124167.0000    314109.600000       -47.163840    314180.500000      -167.224200    312943.300000        72.678150       422.956800       147.854900       421.383600        29.480320       428.282500       -91.876740        59.996480         0.041656
1643124168.0000    314139.700000       -48.894820    314197.300000      -168.959000    312923.200000        70.950580       422.924300       146.264200       421.691500        27.658070       429.216000       -93.732570        59.994600        -0.012817
1643124169.0000    314159.200000       -50.637500    314206.400000      -170.703900    312942.500000        69.205310       422.811600       144.435100       421.493700        26.009510       428.655300       -95.480260        59.994180         0.007782
1643124170.0000    314175.400000       -53.317810    314251.800000      -173.384900    312979.700000        66.521840       422.839600       141.784400       420.939800        23.526770       427.036100       -97.958520        59.991890        -0.020370
1643124171.0000    314186.100000       -56.340210    314225.800000      -176.402400    312982.800000        63.506180       423.399400       138.692700       422.489200        20.350280       428.046700      -100.937300        59.990550         0.024033
1643124172.0000    314184.700000       -60.159190    314200.300000       179.781200    312996.800000        59.692530       423.807000       135.061700       421.345100        16.545820       427.960600      -104.994100        59.988070        -0.005264
1643124173.0000    314169.000000       -65.048040    314221.800000       174.889400    312982.300000        54.797880       424.068600       130.052900       421.316300        11.551040       428.088300      -109.850200        59.985870         0.027008
1643124174.0000    314150.100000       -70.610180    314227.500000       169.318800    312935.000000        49.224660       422.153500       124.417800       420.715400         5.884022       427.382700      -115.441300        59.983220        -0.002518
1643124175.0000    314188.500000       -77.397010    314239.100000       162.540400    312974.300000        42.448850       423.046900       117.497500       421.656700        -0.697550       428.306700      -122.253300        59.978980        -0.003662
1643124176.0000    314203.200000       -84.878700    314234.700000       155.055400    312987.300000        34.965390       425.644900       110.136100       422.579100        -8.348381       429.830200      -129.825600        59.978630         0.003204
1643124177.0000    314291.100000       -92.908280    314358.800000       147.028000    313099.300000        26.934280       422.932900       102.206500       420.762300       -16.285440       428.902300      -137.681900        59.977380        -0.016708
1643124178.0000    314316.900000      -100.774900    314366.200000       139.155300    313095.000000        19.068330       422.643300        94.361910       420.916700       -24.191640       427.761300      -145.557900        59.978220         0.014648
1643124179.0000    314169.100000      -109.270400    314252.500000       130.658600    312955.300000        10.564720       424.343700        85.755020       424.280000       -32.729610       430.004600      -154.110700        59.974340        -0.008698
