Terminal: LT 500  PARNAIBA III - ACARAU III C1
Tensão base: 500 kV
SOC inicial: 1643124120
SOC final: 1643124179
Taxa: 1 fasores/s
Total de frames faltantes: - 

Tempo_(SOC)           VA_mod_(V)     VA_ang_(graus)     VB_mod_(V)     VB_ang_(graus)     VC_mod_(V)     VC_ang_(graus)     IA_mod_(A)     IA_ang_(graus)     IB_mod_(A)     IB_ang_(graus)     IC_mod_(A)     IC_ang_(graus)     Frequência        Delta_Freq     Faltante
1643124120.0000    309284.100000       -22.408680    310002.300000      -142.412400    309435.700000        97.479270       109.137300        63.526270       111.007700       -59.250140       106.925000      -178.526500        59.974750        -0.024948
1643124121.0000    309232.300000       -31.426880    309981.200000      -151.435000    309402.300000        88.455780       108.995900        54.177200       110.994000       -68.555250       106.084700       172.529200        59.973950        -0.013504
1643124122.0000    309219.800000       -40.855680    309980.800000      -160.858400    309405.100000        79.024610       108.853500        44.739770       110.827500       -78.148650       106.655200       162.974800        59.973470         0.001602
1643124123.0000    309248.700000       -50.830630    310040.400000      -170.844600    309403.300000        69.040920       108.975900        34.964560       111.041200       -88.081130       106.793600       152.610000        59.971410         0.001602
1643124124.0000    309216.400000       -61.225600    310048.100000       178.761400    309395.400000        58.639390       107.698400        24.621330       110.712600       -98.213810       106.079400       142.706700        59.971350         0.005722
1643124125.0000    309231.100000       -71.796100    309911.200000       168.202300    309385.900000        48.098010       107.901800        13.748070       109.495500      -109.097400       105.599400       132.017900        59.970260        -0.003204
1643124126.0000    309239.100000       -82.955370    309969.300000       157.024900    309330.900000        36.927230       108.171000         2.797428       110.198900      -120.283400       105.548200       120.610200        59.968770         0.022202
1643124127.0000    309215.300000       -94.527760    309983.300000       145.458700    309341.400000        25.349880       107.939000        -8.864161       109.709100      -131.997800       105.721000       109.198200        59.966460        -0.006866
1643124128.0000    309271.900000      -106.048500    309995.700000       133.929700    309314.400000        13.832900       107.456100       -19.541080       109.655300      -143.044500       104.520600        97.967400        59.969320        -0.008698
1643124129.0000    309270.400000      -117.126000    309994.300000       122.851000    309327.000000         2.754555       108.419800       -30.983560       110.225900      -153.926800       105.491800        87.051390        59.969300        -0.009155
1643124130.0000    309204.900000      -128.602600    309969.600000       111.379800    309327.300000        -8.723268       107.878600       -42.479970       109.413100      -165.471200       105.734000        75.294430        59.966620        -0.038223
1643124131.0000    309195.300000      -140.096400    309980.300000        99.874120    309266.400000       -20.231120       107.690000       -54.058180       110.374200      -177.109200       104.999400        63.611590        59.967580        -0.022888
1643124132.0000    309195.000000      -152.085100    309972.900000        87.897270    309293.000000       -32.214030       108.198000       -66.453900       110.272300       170.515600       105.572100        51.238700        59.965300        -0.008011
1643124133.0000    309214.500000      -165.265800    309949.600000        74.723340    309320.100000       -45.386570       107.838000       -79.843410       110.613400       157.449700       105.652500        38.269580        59.963050         0.042114
1643124134.0000    309199.300000      -178.977700    309940.900000        61.015040    309343.000000       -59.092110       107.817800       -93.287370       109.511300       143.958800       105.122100        24.662320        59.961710         0.005035
1643124135.0000    309227.200000       166.939600    309919.400000        46.928520    309341.200000       -73.171360       108.035300      -107.556300       109.694500       129.772600       105.520200        10.560030        59.959980         0.016937
1643124136.0000    309197.500000       152.279000    309973.600000        32.276650    309386.200000       -87.840730       107.975800      -122.241300       110.606500       115.248400       106.323000        -4.076233        59.960150        -0.003662
1643124137.0000    309179.100000       138.453900    309991.900000        18.437750    309312.400000      -101.681500       107.309800      -135.038600       109.118400       101.982400       104.826700       -17.434360        59.962210        -0.006180
1643124138.0000    309201.800000       125.274500    309943.900000         5.265775    309341.400000      -114.838900       107.923500      -148.876000       110.135600        88.370010       105.505900       -30.872170        59.963570        -0.021286
1643124139.0000    309237.100000       112.359400    309939.300000        -7.646515    309371.100000      -127.748200       108.543600      -161.700100       110.246500        75.170460       106.085600       -43.687970        59.964070        -0.030670
1643124140.0000    309203.700000       100.005400    309914.100000       -20.005960    309319.000000      -140.108500       107.611200      -174.177500       109.649300        63.095980       105.183300       -55.721930        59.965400        -0.022888
1643124141.0000    309135.700000        87.844830    309960.400000       -32.159440    309342.900000      -152.282800       107.822800       173.841100       109.852200        51.099640       105.807700       -68.326820        59.966370        -0.051727
1643124142.0000    309205.700000        76.253300    310012.500000       -43.765160    309348.200000      -163.876300       108.612500       162.138900       110.624200        39.429940       106.419700       -79.836400        59.968620         0.030212
1643124143.0000    309269.300000        64.960880    309983.200000       -55.060340    309328.500000      -175.156100       108.033700       151.024600       110.038600        28.011010       105.361100       -91.047860        59.969510         0.000000
1643124144.0000    309239.000000        54.400660    309986.900000       -65.606290    309389.400000       174.284600       108.855500       140.781100       109.863600        17.831100       105.857600      -101.123900        59.971250         0.008926
1643124145.0000    309192.800000        44.527050    309987.200000       -75.480780    309376.100000       164.402200       108.996000       130.488000       110.794300         7.726777       106.832900      -111.465700        59.971780        -0.077820
1643124146.0000    309257.000000        34.854640    309967.800000       -85.159230    309345.300000       154.738600       108.498900       121.117000       110.501700        -1.767078       105.613700      -121.106600        59.973040        -0.029297
1643124147.0000    309229.400000        25.399270    309946.400000       -94.610420    309347.400000       145.285200       107.947800       111.396500       109.757400       -11.208290       105.376600      -130.509300        59.974640         0.057678
1643124148.0000    309252.900000        15.859030    309978.700000      -104.159000    309347.600000       135.738800       108.861000       102.190400       110.542000       -20.764730       106.044400      -140.107600        59.973320        -0.004349
1643124149.0000    309272.400000         6.701871    309935.300000      -113.312400    309353.700000       126.593600       107.863900        93.072810       110.299200       -29.820730       105.632700      -148.559100        59.975920        -0.003204
1643124150.0000    309226.300000        -1.841778    309985.600000      -121.859800    309331.300000       118.033300       107.701500        84.609120       109.757100       -38.226550       104.915400      -157.691100        59.976750        -0.038452
1643124151.0000    309274.800000        -9.545368    310078.900000      -129.560400    309409.000000       110.322600       109.102100        76.727910       110.986600       -46.010750       106.700800      -165.633000        59.980030        -0.032043
1643124152.0000    309275.800000       -16.322890    310011.800000      -136.333400    309381.700000       103.560400       109.023900        69.455320       110.873300       -53.462920       106.751000      -172.248200        59.981960        -0.002747
1643124153.0000    309234.100000       -22.840660    309977.200000      -142.835400    309447.700000        97.049960       109.111000        63.124180       110.707000       -59.455860       106.702400      -178.792600        59.982900         0.034332
1643124154.0000    309314.300000       -28.901220    310022.500000      -148.907900    309467.800000        90.989130       109.625000        57.065330       111.342300       -65.443140       107.689100       175.276700        59.984030         0.008011
1643124155.0000    309305.200000       -33.926870    310079.300000      -153.943500    309434.900000        85.946520       108.844300        52.060080       110.873600       -70.415190       106.681000       170.154900        59.987350         0.027466
1643124156.0000    309233.400000       -38.205570    310014.000000      -158.217500    309384.400000        81.671190       108.309100        47.621250       110.298500       -75.203670       106.199900       165.593100        59.989080         0.013046
1643124157.0000    309257.000000       -41.905920    309982.200000      -161.927500    309338.500000        77.972500       108.137900        44.099290       110.983800       -78.605240       105.862800       162.051900        59.989720        -0.019455
1643124158.0000    309276.200000       -45.501210    310037.000000      -165.508200    309428.600000        74.376280       108.415500        40.594730       111.082400       -82.369860       106.533700       158.513400        59.991470         0.014191
1643124159.0000    309276.800000       -48.084730    309992.700000      -168.099200    309374.100000        71.799930       107.839300        38.391370       109.540200       -84.593300       104.924600       156.133500        59.994240        -0.017166
1643124160.0000    309243.400000       -49.606150    310029.400000      -169.616700    309392.900000        70.268470       107.633200        36.298480       110.177200       -86.251850       105.338500       154.303200        59.997620         0.005035
1643124161.0000    309329.300000       -50.710280    310053.900000      -170.715300    309463.700000        69.173720       108.875100        35.508170       110.936700       -87.073090       106.787000       153.439800        59.998790         0.031815
1643124162.0000    309293.800000       -51.071610    310029.900000      -171.077300    309459.600000        68.813470       109.115500        35.471410       110.702800       -87.231920       106.548100       153.726000        59.999430        -0.032959
1643124163.0000    309267.100000       -51.065720    310048.800000      -171.071800    309434.000000        68.813040       108.251200        35.673310       110.285100       -87.373120       106.289400       153.701800        60.001320        -0.015564
1643124164.0000    309259.100000       -51.059760    310055.100000      -171.067800    309430.700000        68.816450       108.491800        35.101280       110.815400       -87.238530       106.744900       153.035800        59.999530        -0.004578
1643124165.0000    309312.200000       -51.350530    310129.500000      -171.378100    309410.900000        68.512120       108.205800        35.319630       111.012900       -87.470280       105.827600       153.127900        59.998210         0.000229
1643124166.0000    309267.300000       -51.461630    310028.800000      -171.475400    309413.600000        68.417530       108.319600        35.027480       109.753000       -87.499560       104.884700       152.783100        60.001080         0.088806
1643124167.0000    309287.800000       -52.313690    310024.500000      -172.298700    309526.700000        67.580800       108.537800        34.199160       110.178700       -88.546210       106.185900       152.011500        59.996230         0.030899
1643124168.0000    309267.800000       -54.082120    310052.100000      -174.075200    309499.400000        65.802570       108.289500        32.247940       110.222800       -90.547380       106.196400       150.158300        59.995050         0.004120
1643124169.0000    309281.100000       -55.852280    310021.000000      -175.864000    309408.700000        64.027690       107.703700        30.743980       109.582900       -92.319990       104.483100       148.628000        59.995310         0.021744
1643124170.0000    309251.400000       -58.454890    310005.500000      -178.458800    309406.900000        61.431810       107.956400        27.603540       110.076700       -94.971660       105.771800       145.517300        59.991920        -0.025635
1643124171.0000    309299.600000       -61.542020    310035.100000       178.456500    309495.700000        58.345730       108.456300        24.897250       110.056000       -97.792150       105.839900       142.909400        59.991080         0.055847
1643124172.0000    309211.800000       -65.325740    309938.800000       174.676400    309383.400000        54.566580       106.718600        21.437180       108.488700      -101.188400       104.110900       139.565600        59.986690        -0.056305
1643124173.0000    309217.800000       -70.218510    310013.600000       169.781100    309405.100000        49.662830       106.757900        15.727670       109.807200      -106.701400       105.256600       134.051600        59.985570         0.009155
1643124174.0000    309323.600000       -75.789030    310069.700000       164.198500    309456.700000        44.091860       109.557600        10.972070       111.502700      -112.409800       106.925300       128.784700        59.983310         0.000229
1643124175.0000    309229.500000       -82.592640    310009.100000       157.400200    309397.300000        37.286240       107.066800         3.948561       109.767300      -118.900400       105.006200       121.917900        59.979200        -0.002975
1643124176.0000    309193.600000       -90.112660    309973.000000       149.889600    309418.400000        29.768370       107.069400        -3.416993       109.234800      -126.117600       104.802100       114.539200        59.979480         0.025864
1643124177.0000    309276.600000       -98.099400    310027.800000       141.888700    309395.200000        21.780020       108.942900       -11.003340       110.545100      -134.092900       105.716400       106.883500        59.977170        -0.008240
1643124178.0000    309328.000000      -105.971900    310034.600000       134.016100    309410.800000        13.916380       108.635300       -19.301660       110.447300      -142.228100       105.585000        98.853100        59.977470        -0.013962
1643124179.0000    309194.900000      -114.454600    309941.900000       125.561300    309438.000000         5.441325       107.574500       -28.459750       109.376100      -151.072000       105.472100        90.030570        59.974640         0.009384
