Terminal: LT 500  QUEIMADA NOVA 2 - BURITIRAMA CL2
Tensão base: 500 kV
SOC inicial: 1643124120
SOC final: 1643124179
Taxa: 1 fasores/s
Total de frames faltantes: - 

Tempo_(SOC)           VA_mod_(V)     VA_ang_(graus)     VB_mod_(V)     VB_ang_(graus)     VC_mod_(V)     VC_ang_(graus)     IA_mod_(A)     IA_ang_(graus)     IB_mod_(A)     IB_ang_(graus)     IC_mod_(A)     IC_ang_(graus)     Frequência        Delta_Freq     Faltante
1643124120.0000    301814.400000       -25.527190    302056.800000      -146.277600    302506.800000        94.379710       353.414700        12.253150       355.422400      -110.285400       336.137600       133.244400        59.975270         0.011215
1643124121.0000    301719.800000       -34.541940    301999.600000      -155.284000    302466.400000        85.365280       354.027000         3.267542       356.411900      -119.355200       336.806400       124.176800        59.973270        -0.030899
1643124122.0000    301658.500000       -43.968250    301985.200000      -164.714700    302400.000000        75.932530       353.874700        -6.240109       356.386300      -128.786000       336.270200       114.769500        59.972910        -0.005951
1643124123.0000    301707.500000       -53.960450    302000.300000      -174.710600    302397.900000        65.941900       354.271200       -16.248590       356.788700      -138.783400       336.770000       104.697700        59.972350         0.041656
1643124124.0000    301757.100000       -64.311890    302050.400000       174.940400    302475.800000        55.592540       353.610500       -26.574950       355.592300      -149.195100       336.100800        94.352560        59.971210        -0.002747
1643124125.0000    301715.300000       -74.931820    302018.900000       164.327000    302450.400000        44.973620       354.035500       -37.291290       356.270000      -159.786800       336.655500        83.723010        59.970650         0.030441
1643124126.0000    301685.500000       -86.081560    301951.000000       153.166000    302372.400000        33.822900       354.287800       -48.350220       355.876600      -170.989800       336.666700        72.538860        59.969300         0.018539
1643124127.0000    301634.400000       -97.647840    301936.500000       141.603400    302349.700000        22.257080       355.254500       -59.930870       356.494300       177.551400       337.124500        61.019570        59.966090        -0.021973
1643124128.0000    301812.900000      -109.129500    302078.800000       130.127700    302518.400000        10.778480       353.243700       -71.274630       355.135500       166.197500       336.139700        49.715290        59.970410         0.064774
1643124129.0000    301692.000000      -120.246700    301967.400000       119.003600    302375.200000        -0.340542       354.018700       -82.536840       356.573100       154.945900       336.501200        38.397100        59.969250         0.004349
1643124130.0000    301651.700000      -131.731500    301965.000000       107.520100    302357.500000       -11.830740       354.278000       -93.967920       355.644300       143.478100       336.542100        26.928430        59.966980        -0.013962
1643124131.0000    301591.200000      -143.233900    301917.100000        96.015010    302300.400000       -23.336450       353.937800      -105.496700       355.425100       131.952600       336.226800        15.412490        59.966380        -0.081024
1643124132.0000    301608.000000      -155.275100    301885.000000        83.980690    302316.400000       -35.368340       353.641500      -117.768500       355.896800       119.811800       336.190600         3.199698        59.965260         0.006409
1643124133.0000    301609.600000      -168.407400    301867.500000        70.842250    302289.500000       -48.501190       353.748700      -130.742200       356.012800       106.701400       336.568100        -9.803614        59.963050         0.034332
1643124134.0000    301623.300000       177.922900    301897.800000        57.178150    302353.100000       -62.165980       353.552100      -144.307300       356.088300        93.096640       336.416200       -23.378410        59.961570         0.003891
1643124135.0000    301573.800000       163.796200    301845.000000        43.048900    302269.200000       -76.294040       354.419500      -158.535000       356.269800        78.895020       336.822600       -37.581180        59.959540        -0.009613
1643124136.0000    301685.800000       149.174500    301939.400000        28.426250    302356.300000       -90.920350       353.674300      -173.083900       355.869400        64.432710       336.083000       -52.135360        59.959510        -0.012817
1643124137.0000    301610.700000       135.320200    301931.500000        14.572350    302314.700000      -104.782800       354.336900       172.889500       356.451000        50.402840       337.198000       -65.990570        59.961960         0.012131
1643124138.0000    301608.900000       122.104600    301884.700000         1.356730    302313.800000      -117.989000       355.286800       159.562300       357.046100        37.120330       337.484400       -79.480580        59.963840         0.010529
1643124139.0000    301647.200000       109.190900    301928.100000       -11.553260    302374.800000      -130.901300       354.101400       146.786000       356.650100        24.304320       337.046000       -92.251520        59.964930         0.040741
1643124140.0000    301571.900000        96.815480    301859.800000       -23.927360    302309.800000      -143.279300       355.280100       134.225400       357.545800        11.699410       337.439800      -104.842100        59.965080        -0.012131
1643124141.0000    301619.200000        84.677540    301922.100000       -36.068850    302336.300000      -155.421900       354.673600       122.154800       356.963000        -0.277679       337.417200      -116.798100        59.966240        -0.006638
1643124142.0000    301624.300000        73.061680    301944.900000       -47.680340    302364.300000      -167.030100       355.170900       110.421100       356.961100       -12.088980       337.839200      -128.599500        59.968630         0.031586
1643124143.0000    301680.600000        61.806780    301960.500000       -58.937590    302395.000000      -178.282300       355.168500        99.281900       356.752800       -23.205180       337.512800      -139.713000        59.970190         0.028152
1643124144.0000    301662.700000        51.255040    301954.300000       -69.484160    302408.500000       171.160900       355.137100        88.732910       356.953700       -33.723070       337.745600      -150.237500        59.972130         0.042114
1643124145.0000    301582.600000        41.345340    301870.400000       -79.397990    302305.500000       161.251100       355.761000        78.712650       357.641100       -43.775290       338.037000      -160.387000        59.970150        -0.159760
1643124146.0000    301626.300000        31.677860    301889.300000       -89.066940    302319.700000       151.583700       356.205800        69.040840       357.878200       -53.522580       338.233300      -170.059200        59.973230        -0.008926
1643124147.0000    301585.900000        22.204100    301876.600000       -98.548730    302285.500000       142.106700       356.478200        59.628150       358.580000       -62.996220       338.892600      -179.611400        59.974130         0.049438
1643124148.0000    301606.300000        12.667060    301920.300000      -108.085800    302278.400000       132.565300       355.577400        50.100240       358.321900       -72.397570       339.148000       171.013400        59.974680         0.044861
1643124149.0000    301656.400000         3.559755    301939.400000      -117.196200    302344.000000       123.465100       355.834500        41.096480       357.962900       -81.435820       338.597900       161.963100        59.976150         0.009613
1643124150.0000    301693.400000        -5.022420    301984.800000      -125.775400    302386.600000       114.882900       354.983400        32.563710       357.712700       -89.936030       338.230300       153.423600        59.976250        -0.028839
1643124151.0000    301782.500000       -12.689640    302086.600000      -133.448700    302446.700000       107.209500       354.357100        25.004260       356.760000       -97.597210       336.617200       145.864000        59.979640         0.001602
1643124152.0000    301724.900000       -19.495400    302003.300000      -140.251100    302388.300000       100.408200       354.589400        18.145240       357.405500      -104.542600       337.726800       138.964300        59.982300         0.029526
1643124153.0000    301769.900000       -25.989550    302041.100000      -146.737000    302453.800000        93.916440       354.475300        11.654490       357.130500      -110.916200       336.817900       132.556900        59.983340         0.052414
1643124154.0000    301801.700000       -32.059920    302109.400000      -152.813800    302498.700000        87.843890       355.150600         5.596668       356.561200      -116.817400       337.328500       126.584500        59.985450         0.068665
1643124155.0000    301837.200000       -37.075550    302129.900000      -157.825900    302520.600000        82.826320       354.847100         0.684350       357.112100      -121.984300       337.295200       121.540900        59.987880         0.065918
1643124156.0000    301793.600000       -41.363340    302120.200000      -162.117400    302509.100000        78.537030       354.504100        -3.671469       357.178400      -126.256800       337.142600       117.138200        59.989420         0.007095
1643124157.0000    301761.700000       -45.066250    302027.300000      -165.821900    302451.600000        74.837410       355.212900        -7.504568       357.431200      -130.077500       338.155100       113.408800        59.989720        -0.025177
1643124158.0000    301834.700000       -48.646160    302122.800000      -169.400800    302504.900000        71.255630       354.323200       -10.953970       356.385900      -133.510200       336.647900       110.039700        59.990910        -0.018539
1643124159.0000    301898.200000       -51.208480    302176.600000      -171.959200    302572.400000        68.697750       353.858300       -13.319760       355.732900      -135.933200       336.234100       107.612500        59.993860        -0.008926
1643124160.0000    301850.100000       -52.754960    302098.200000      -173.513700    302501.800000        67.148560       353.970100       -14.990470       356.565900      -137.562400       336.615300       105.964300        59.996830        -0.013733
1643124161.0000    301953.400000       -53.871230    302219.700000      -174.624100    302612.500000        66.034770       353.447200       -15.974230       355.483600      -138.536400       335.688300       104.994100        59.999290         0.084915
1643124162.0000    301895.400000       -54.235460    302138.600000      -174.987900    302558.800000        65.675080       354.737400       -16.530110       357.902200      -139.150600       337.089200       104.393300        59.998740        -0.043259
1643124163.0000    301864.700000       -54.237640    302113.800000      -174.991500    302540.600000        65.669360       354.396900       -16.436130       356.691300      -138.991200       336.768600       104.403900        60.000320        -0.073929
1643124164.0000    301842.800000       -54.252270    302108.800000      -175.007400    302513.100000        65.651940       354.460700       -16.494200       356.808600      -139.018400       336.743000       104.452800        60.000500         0.041885
1643124165.0000    301915.200000       -54.512380    302215.500000      -175.273100    302555.000000        65.389490       353.932000       -16.610610       356.436500      -139.130400       336.802900       104.289600        59.999970         0.124970
1643124166.0000    301783.400000       -54.620430    302097.100000      -175.370300    302493.800000        65.277530       354.461500       -16.881080       356.737000      -139.411800       337.412300       104.018100        60.002800         0.127487
1643124167.0000    301768.500000       -55.491790    302023.300000      -176.230400    302505.600000        64.420310       355.182400       -17.857560       356.640200      -140.385200       337.332300       103.115600        59.997660         0.062714
1643124168.0000    301828.600000       -57.188380    302096.400000      -177.927500    302558.000000        62.723710       354.347900       -19.224150       355.919700      -141.813300       336.025500       101.827000        59.994510        -0.016937
1643124169.0000    301853.200000       -58.957820    302111.600000      -179.705300    302529.800000        60.952590       354.007300       -21.036150       356.222600      -143.651400       336.653100        99.918820        59.994820         0.025635
1643124170.0000    301832.600000       -61.588730    302098.900000       177.666700    302527.000000        58.321100       353.713900       -23.679570       355.759600      -146.242700       336.081500        97.341290        59.991290        -0.059052
1643124171.0000    301841.100000       -64.662530    302115.100000       174.593600    302571.400000        55.247400       354.543000       -26.809740       356.590000      -149.390100       337.021900        94.151030        59.992550         0.113068
1643124172.0000    301753.600000       -68.484820    301993.200000       170.772100    302452.100000        51.428770       355.417000       -30.762620       357.441200      -153.385800       337.560800        90.205170        59.986830        -0.060425
1643124173.0000    301790.900000       -73.345380    302073.800000       165.911200    302517.800000        46.563660       354.420900       -35.523210       356.632800      -158.074800       336.984100        85.436070        59.987470         0.105972
1643124174.0000    301721.900000       -78.944070    302003.100000       160.310400    302434.900000        40.963050       355.080200       -41.339430       356.761200      -163.873600       337.667400        79.628820        59.982320        -0.071869
1643124175.0000    301760.900000       -85.723700    302062.900000       153.529600    302471.700000        34.183530       355.120100       -48.052970       357.394400      -170.580000       337.396500        72.878270        59.980180         0.070038
1643124176.0000    301749.700000       -93.228860    302028.500000       146.028400    302471.800000        26.684020       355.305700       -55.482140       357.451200      -178.086200       337.567400        65.450710        59.978860        -0.000687
1643124177.0000    301813.700000      -101.240900    302109.300000       138.017000    302574.200000        18.669200       355.163400       -63.504820       357.162900       173.979700       337.649200        57.487840        59.977790         0.011444
1643124178.0000    301822.000000      -109.104900    302057.200000       130.144000    302525.300000        10.808890       355.262500       -71.397720       357.157300       166.089700       337.712300        49.602390        59.977910         0.041428
1643124179.0000    301635.500000      -117.634200    301931.800000       121.622200    302393.600000         2.270899       355.946800       -79.997670       358.286000       157.432100       338.892200        40.971180        59.974850         0.026779
