Terminal: LT 500  BARREIRAS II - BURITIRAMA CN6
Tensão base: 500 kV
SOC inicial: 1643124120
SOC final: 1643124179
Taxa: 1 fasores/s
Total de frames faltantes: - 

Tempo_(SOC)           VA_mod_(V)     VA_ang_(graus)     VB_mod_(V)     VB_ang_(graus)     VC_mod_(V)     VC_ang_(graus)     IA_mod_(A)     IA_ang_(graus)     IB_mod_(A)     IB_ang_(graus)     IC_mod_(A)     IC_ang_(graus)     Frequência        Delta_Freq     Faltante
1643124120.0000    305285.500000       -33.212900    305528.100000      -153.980300    305128.000000        86.768040       484.705400       143.138000       520.483000        22.962800       502.974700       -98.831800        59.975990         0.035248
1643124121.0000    305217.500000       -42.240980    305470.200000      -163.000200    305095.500000        77.741140       485.167400       134.123200       521.575500        13.957210       504.733500      -107.847800        59.973230        -0.013733
1643124122.0000    305154.800000       -51.674280    305436.100000      -172.439800    305044.900000        68.298230       486.133000       124.679700       521.678300         4.487798       504.863500      -117.257700        59.973410         0.024948
1643124123.0000    305158.300000       -61.671370    305438.700000       177.563500    305051.800000        58.304780       486.019600       114.679700       522.418800        -5.518557       505.140100      -127.267600        59.972260         0.020599
1643124124.0000    305220.300000       -72.011350    305518.500000       167.227400    305112.100000        47.966870       485.149000       104.311900       520.973400       -15.823960       503.870900      -137.598100        59.970950         0.001373
1643124125.0000    305146.300000       -82.634870    305439.500000       156.607800    305054.300000        37.338630       485.392100        93.641400       521.238500       -26.509930       504.394600      -148.269300        59.969500         0.014877
1643124126.0000    305140.900000       -93.784240    305413.600000       145.451900    305000.300000        26.194540       485.801000        82.539920       520.900900       -37.554810       504.131400      -159.329200        59.968730         0.011673
1643124127.0000    305132.200000      -105.358600    305422.100000       133.879900    305019.500000        14.616020       486.300300        71.030170       522.155800       -49.110070       504.630400      -170.888200        59.966960        -0.014648
1643124128.0000    305315.000000      -116.793500    305605.200000       122.450600    305236.400000         3.185858       483.459900        59.653710       518.753400       -60.577660       501.863800       177.626800        59.970040         0.072556
1643124129.0000    305122.800000      -127.949600    305409.300000       111.286600    305024.600000        -7.974298       486.410100        48.343300       521.483900       -71.778730       504.554200       166.473100        59.967720        -0.053329
1643124130.0000    305121.600000      -139.433300    305425.500000        99.804560    305015.600000       -19.456030       485.052200        36.898500       521.525500       -83.287060       504.303100       154.978200        59.967260         0.021515
1643124131.0000    305033.200000      -150.927300    305348.800000        88.308360    304908.800000       -30.956170       485.061400        25.334210       520.676900       -94.824460       503.546200       143.502800        59.965590        -0.117416
1643124132.0000    304944.800000      -162.997400    305215.500000        76.244600    304855.300000       -43.018620       487.080300        13.185060       522.815700      -106.966700       505.761000       131.311600        59.964830        -0.004578
1643124133.0000    305028.100000      -176.109500    305284.500000        63.122600    304876.800000       -56.134110       486.226000         0.083050       521.987400      -120.026800       504.867500       118.242000        59.964020         0.068207
1643124134.0000    305105.000000       170.237600    305347.100000        49.470210    304968.600000       -69.782710       484.374000       -13.491900       520.347000      -133.632700       503.710300       104.576200        59.962300         0.019684
1643124135.0000    304993.500000       156.086500    305258.900000        35.320120    304864.400000       -83.933570       486.230700       -27.631450       522.112100      -147.809600       504.882500        90.433700        59.959600         0.013046
1643124136.0000    305124.500000       141.483200    305414.500000        20.720170    305004.500000       -98.539630       485.256400       -42.236880       520.848000      -162.384000       503.743600        75.834840        59.960200         0.034103
1643124137.0000    305053.600000       127.589600    305357.900000         6.829668    304947.300000      -112.433200       487.324200       -56.045160       523.352100      -176.261000       505.859900        62.001880        59.961760         0.020828
1643124138.0000    304962.100000       114.355300    305236.100000        -6.404959    304847.800000      -125.669200       488.760700       -69.394390       523.828800       170.497500       507.709500        48.707030        59.963420         0.004120
1643124139.0000    305050.300000       101.470900    305348.300000       -19.283300    304956.300000      -138.548500       486.660500       -82.282370       522.431200       157.594000       505.664600        35.845360        59.964550         0.040054
1643124140.0000    304918.000000        89.056310    305219.600000       -31.695880    304827.200000      -150.963400       488.907500       -94.760190       524.561600       145.177000       508.126000        23.406650        59.965170         0.005264
1643124141.0000    304996.300000        76.936660    305276.300000       -43.818550    304906.400000      -163.081000       487.636200      -106.838700       523.343400       133.017800       506.191400        11.289180        59.966130         0.028152
1643124142.0000    304947.900000        65.297490    305235.600000       -55.455350    304866.000000      -174.721900       490.424100      -118.569800       524.873300       121.309800       508.118800        -0.378991        59.968030         0.018768
1643124143.0000    305041.300000        54.059880    305314.300000       -66.694440    304942.500000       174.045400       488.819700      -129.738700       524.320800       110.133500       507.095800       -11.539850        59.970280         0.031586
1643124144.0000    305032.300000        43.510300    305307.300000       -77.236740    304993.400000       163.494600       488.310200      -140.193700       523.552200        99.596330       506.245400       -22.138240        59.971950         0.012589
1643124145.0000    304920.200000        33.572210    305179.400000       -87.178900    304839.800000       153.558500       489.935400      -150.212600       525.490500        89.631630       508.285300       -32.105710        59.971620        -0.059280
1643124146.0000    304988.100000        23.896710    305233.600000       -96.862220    304887.700000       143.880400       490.682300      -159.869200       525.840300        79.969120       508.590300       -41.725060        59.972910        -0.015564
1643124147.0000    304947.900000        14.415640    305257.800000      -106.353500    304800.200000       134.385100       490.867900      -169.349500       526.700600        70.552290       509.175000       -51.282090        59.973980         0.028610
1643124148.0000    305011.600000         4.893543    305316.600000      -115.878900    304875.000000       124.856900       489.837900      -178.864000       525.827500        61.022560       508.491000       -60.731000        59.974110         0.018539
1643124149.0000    305105.100000        -4.199602    305389.600000      -124.969900    304942.200000       115.771000       489.112300       172.101100       524.772500        52.027850       507.872700       -69.794040        59.976450         0.047607
1643124150.0000    305129.900000       -12.764700    305444.800000      -133.536100    304985.500000       107.205100       488.167600       163.544700       523.744900        43.387860       507.547600       -78.372760        59.976600        -0.016022
1643124151.0000    305231.900000       -20.403330    305517.100000      -141.182700    305053.400000        99.562770       486.436300       155.884900       522.027100        35.771230       505.078900       -86.040840        59.980040         0.020599
1643124152.0000    305123.900000       -27.223460    305388.900000      -147.999200    304946.100000        92.746060       487.470000       148.956500       523.593100        28.899830       505.959500       -92.857750        59.981880        -0.005951
1643124153.0000    305195.300000       -33.701620    305474.200000      -154.475800    305039.300000        86.268970       486.152100       142.517900       522.587100        22.430290       505.095700       -99.428600        59.981980        -0.005264
1643124154.0000    305299.100000       -39.767070    305553.700000      -160.540600    305124.600000        80.205260       485.761100       136.536200       521.996100        16.399530       504.859200      -105.336600        59.985390         0.034103
1643124155.0000    305286.900000       -44.789400    305556.600000      -165.560900    305125.400000        75.184570       486.467800       131.514500       522.398700        11.340550       505.445300      -110.406100        59.987410         0.037766
1643124156.0000    305225.900000       -49.083020    305518.300000      -169.854800    305082.100000        70.887520       486.392800       127.191000       522.869300         7.035398       505.398700      -114.733600        59.987600        -0.069580
1643124157.0000    305173.900000       -52.814260    305431.100000      -173.584300    305013.500000        67.164240       488.671100       123.498300       524.713000         3.290147       506.687700      -118.476300        59.989910         0.015335
1643124158.0000    305286.900000       -56.351040    305561.800000      -177.123500    305118.900000        63.620010       486.250100       119.950000       522.215200        -0.153247       504.891500      -121.995100        59.991430        -0.021286
1643124159.0000    305407.300000       -58.885330    305658.300000      -179.656000    305240.700000        61.089240       484.725400       117.427900       520.554500        -2.744800       502.665100      -124.526300        59.993030        -0.010529
1643124160.0000    305310.900000       -60.468520    305551.200000       178.753700    305103.000000        59.509760       486.940900       115.869500       522.565900        -4.304149       505.259900      -126.031900        59.996780         0.007782
1643124161.0000    305418.300000       -61.545360    305664.000000       177.683200    305247.200000        58.431390       484.683200       114.778700       520.445100        -5.411427       503.701500      -127.202900        59.999280         0.081940
1643124162.0000    305372.600000       -61.955570    305601.300000       177.265400    305158.500000        58.020330       487.482600       114.414300       523.632700        -5.727398       505.625000      -127.532500        59.999600         0.025406
1643124163.0000    305326.500000       -61.946090    305575.100000       177.274600    305154.200000        58.027460       486.235300       114.346200       522.758200        -5.765767       505.371900      -127.547900        60.000120        -0.068207
1643124164.0000    305329.000000       -61.959960    305595.900000       177.259900    305122.400000        58.008230       486.406300       114.347200       522.306400        -5.788592       505.142900      -127.571700        60.001590         0.080795
1643124165.0000    305437.500000       -62.193500    305732.200000       177.023300    305231.300000        57.769990       484.731000       114.100600       520.893800        -6.064823       503.367600      -127.822100        60.000570         0.069580
1643124166.0000    305231.900000       -62.338920    305533.800000       176.897000    305153.400000        57.635120       486.449100       114.007500       522.291400        -6.203138       504.762200      -127.941100        59.998990        -0.044174
1643124167.0000    305252.300000       -63.221280    305461.800000       176.015800    305117.800000        56.765200       487.144900       113.160800       523.713300        -7.073566       505.764400      -128.845500        59.997780         0.039825
1643124168.0000    305391.500000       -64.858690    305620.100000       174.386800    305292.500000        55.131900       483.577100       111.592600       519.472500        -8.713660       501.944500      -130.455400        59.994390        -0.039139
1643124169.0000    305363.800000       -66.645550    305589.200000       172.591500    305224.000000        53.340600       485.461900       109.724300       520.603800       -10.485900       503.020400      -132.214200        59.994230        -0.023346
1643124170.0000    305350.000000       -69.262370    305567.300000       169.977800    305224.200000        50.726960       484.351500       107.069200       519.552200       -13.085180       502.090600      -134.847400        59.990680        -0.085373
1643124171.0000    305325.100000       -72.358380    305577.900000       166.879800    305225.400000        47.625330       485.939700       103.952400       521.395900       -16.269510       503.640800      -137.937100        59.991510         0.028381
1643124172.0000    305254.800000       -76.214330    305452.900000       163.029500    305148.400000        43.776120       486.908600       100.174100       522.441600       -20.036750       505.086000      -141.737500        59.988090         0.039368
1643124173.0000    305307.100000       -81.044820    305542.200000       158.198500    305199.900000        38.944320       485.061400        95.287570       520.969800       -24.860050       503.678500      -146.575800        59.987540         0.113754
1643124174.0000    305144.600000       -86.674060    305378.200000       152.566000    305047.100000        33.313340       486.593200        89.621690       522.069200       -30.562250       504.854600      -152.282300        59.981480        -0.107575
1643124175.0000    305267.700000       -93.436220    305513.300000       145.805900    305166.600000        26.548700       485.424900        82.870010       520.981000       -37.337140       503.554100      -159.078100        59.981110         0.083313
1643124176.0000    305281.300000      -100.940900    305525.400000       138.298900    305169.200000        19.045360       485.258800        75.420540       521.187100       -44.720630       503.438300      -166.496500        59.979420         0.015793
1643124177.0000    305334.100000      -108.940200    305603.200000       130.307800    305273.200000        11.046280       483.940900        67.389250       519.258300       -52.784200       501.957400      -174.477000        59.978140         0.051498
1643124178.0000    305344.200000      -116.805500    305578.400000       122.436900    305224.700000         3.182208       484.031100        59.566930       519.256000       -60.631720       502.169900       177.660500        59.978400         0.054016
1643124179.0000    305119.700000      -125.368000    305407.300000       113.878700    305054.900000        -5.383110       486.101000        50.939400       521.533300       -69.237720       503.407500       169.088900        59.974080        -0.005493
