Terminal: LT 500  JANAUBA 3 - P. JUSCELINO C2
Tensão base: 500 kV
SOC inicial: 1643124120
SOC final: 1643124179
Taxa: 1 fasores/s
Total de frames faltantes: - 

Tempo_(SOC)           VA_mod_(V)     VA_ang_(graus)     VB_mod_(V)     VB_ang_(graus)     VC_mod_(V)     VC_ang_(graus)     IA_mod_(A)     IA_ang_(graus)     IB_mod_(A)     IB_ang_(graus)     IC_mod_(A)     IC_ang_(graus)     Frequência        Delta_Freq     Faltante
1643124120.0000    310517.200000       -40.442490    309248.600000      -160.476500    309368.900000        79.955540       218.707900        13.169970       222.792500      -108.472200       227.147400       130.711600        59.974510        -0.010300
1643124121.0000    310484.900000       -49.477530    309252.100000      -169.503200    309391.300000        70.921800       219.458300         4.054056       222.865000      -117.646800       227.587100       121.627400        59.973270        -0.047150
1643124122.0000    310441.600000       -58.928820    309212.800000      -178.960300    309338.500000        61.464080       219.153900        -5.482080       223.456100      -127.129500       227.226100       112.113600        59.973840         0.056763
1643124123.0000    310390.700000       -68.918300    309172.700000       171.049100    309283.300000        51.477480       219.357400       -15.505760       223.449500      -137.175500       226.922000       102.093500        59.972340         0.020142
1643124124.0000    310454.400000       -79.247170    309242.400000       160.725400    309345.900000        41.150100       218.983300       -25.649620       223.110400      -147.333000       227.215000        91.843860        59.971450         0.000687
1643124125.0000    310372.800000       -89.879590    309177.300000       150.095900    309305.300000        30.513440       218.079300       -36.447240       222.687700      -157.880300       226.635700        81.086320        59.969620         0.009384
1643124126.0000    310401.000000      -101.028200    309169.300000       138.939500    309288.800000        19.368380       218.835800       -47.605680       222.840500      -169.074700       227.022500        69.960310        59.968120        -0.020828
1643124127.0000    310389.800000      -112.604900    309200.400000       127.366700    309298.000000         7.790159       219.167400       -59.138730       222.922100       179.181600       227.155600        58.472400        59.967040        -0.011215
1643124128.0000    310538.900000      -123.994500    309301.800000       115.977200    309433.500000        -3.597625       218.280000       -70.265310       222.445100       168.062700       226.477100        47.192590        59.971140         0.106888
1643124129.0000    310355.700000      -135.180300    309142.600000       104.786500    309229.000000       -14.784070       218.717100       -81.768360       222.741400       156.638200       226.927900        35.783020        59.968770         0.008698
1643124130.0000    310400.700000      -146.664900    309177.500000        93.297870    309272.900000       -26.275440       218.458500       -93.004850       222.385500       145.209100       226.610800        24.380470        59.967800         0.025864
1643124131.0000    310307.600000      -158.155300    309113.300000        81.809840    309179.300000       -37.763360       218.707000      -104.631700       222.721100       133.664500       226.660400        12.859090        59.965740        -0.092468
1643124132.0000    310279.300000      -170.247000    309039.900000        69.720730    309157.800000       -49.848330       218.730400      -116.983900       222.880500       121.475200       226.415200         0.553251        59.965950         0.002747
1643124133.0000    310320.400000       176.644100    309072.200000        56.605350    309139.600000       -62.959750       218.558900      -130.038600       223.059300       108.507400       226.950100       -12.555360        59.963200         0.026550
1643124134.0000    310380.100000       163.013000    309127.300000        42.975100    309186.800000       -76.591740       218.460300      -143.606900       222.634500        94.800000       226.654000       -26.056800        59.962090         0.006409
1643124135.0000    310306.400000       148.849100    309041.800000        28.809300    309129.600000       -90.753490       218.560200      -157.861900       222.567700        80.479730       225.839100       -40.312520        59.959470        -0.018311
1643124136.0000    310379.300000       134.262300    309155.300000        14.225910    309255.600000      -105.343800       218.586200      -172.250400       222.491900        66.125150       226.788400       -54.835500        59.959490        -0.003891
1643124137.0000    310347.400000       120.372900    309126.300000         0.337093    309213.900000      -119.233200       218.804800       173.555700       223.098900        51.811110       226.992500       -68.916300        59.962390         0.049896
1643124138.0000    310275.800000       107.110400    309041.000000       -12.921850    309128.200000      -132.495900       218.561600       160.105600       222.960600        38.595510       226.861800       -82.316040        59.963330         0.003662
1643124139.0000    310350.000000        94.230220    309130.300000       -25.799790    309242.800000      -145.376400       218.856600       147.448500       223.047100        25.805750       227.035400       -95.057800        59.965580         0.073929
1643124140.0000    310240.800000        81.796080    309014.600000       -38.234700    309159.400000      -157.806000       219.249400       134.801200       223.187600        13.294030       227.461900      -107.501800        59.965010         0.006180
1643124141.0000    310269.900000        69.691860    309032.700000       -50.340130    309162.500000      -169.908700       218.805200       122.816700       223.049500         1.199768       226.750400      -119.681300        59.966650         0.038681
1643124142.0000    310230.600000        58.035600    309008.200000       -61.990600    309140.500000       178.433200       219.173800       111.113900       223.282000       -10.456560       227.518100      -131.308800        59.967710        -0.021057
1643124143.0000    310300.200000        46.830120    309051.600000       -73.202480    309175.300000       167.226700       219.176300        99.889340       223.396600       -21.646070       227.214100      -142.480900        59.970850         0.048981
1643124144.0000    310296.900000        36.268370    309048.100000       -83.751310    309215.600000       156.674400       218.919200        89.628920       223.161700       -32.178400       226.784100      -152.901000        59.971870         0.008011
1643124145.0000    310189.600000        26.308560    308937.700000       -93.718470    309051.500000       146.712200       218.811700        79.306370       223.163600       -42.195130       227.319900      -162.973100        59.969430        -0.147171
1643124146.0000    310203.600000        16.637060    308972.600000      -103.388900    309091.800000       137.036300       219.573300        69.630210       223.521700       -51.957550       227.634700      -172.715600        59.972670        -0.020828
1643124147.0000    310174.600000         7.160071    309019.100000      -112.881000    309044.000000       127.543000       219.409600        60.147070       223.894800       -61.516000       227.323600       177.810100        59.974800         0.065689
1643124148.0000    310227.900000        -2.355774    309084.600000      -122.400400    309091.400000       118.021800       219.034600        50.749610       223.814200       -70.833380       227.250600       168.372600        59.975150         0.064774
1643124149.0000    310285.300000       -11.432760    309100.500000      -131.476900    309131.800000       108.950500       219.410500        41.788010       223.540600       -79.836580       227.642700       159.305900        59.975710         0.020599
1643124150.0000    310350.500000       -20.005280    309175.200000      -140.047200    309224.000000       100.383000       219.285200        33.246750       224.019400       -88.368540       228.282500       150.779400        59.976750        -0.007782
1643124151.0000    310399.600000       -27.618940    309229.500000      -147.668000    309239.500000        92.759430       219.106800        25.753370       223.784800       -95.755180       227.403600       143.290000        59.980400         0.043488
1643124152.0000    310322.700000       -34.462260    309121.400000      -154.513500    309131.300000        85.924140       218.710600        18.865990       223.378100      -102.855900       226.979500       136.424600        59.981460        -0.001831
1643124153.0000    310409.900000       -40.942850    309187.900000      -160.990100    309210.800000        79.444710       219.318100        12.495370       223.528100      -109.135500       227.247800       130.073200        59.982830         0.031586
1643124154.0000    310512.600000       -46.998620    309305.600000      -167.048600    309333.500000        73.385310       219.573800         6.445444       223.652400      -115.253500       227.488900       124.069500        59.985870         0.078964
1643124155.0000    310534.600000       -52.017170    309312.300000      -172.064400    309363.900000        68.371520       219.722300         1.334248       224.019800      -120.329500       227.942100       118.947300        59.988000         0.073242
1643124156.0000    310490.400000       -56.320230    309291.500000      -176.365900    309295.600000        64.065290       219.342700        -2.911286       223.858800      -124.632000       227.496000       114.596500        59.988910        -0.035934
1643124157.0000    310435.000000       -60.056390    309217.300000       179.902700    309266.200000        60.333710       219.975900        -6.679994       224.027600      -128.431100       227.586000       110.770200        59.989010        -0.048981
1643124158.0000    310554.800000       -63.578560    309329.900000       176.376100    309385.400000        56.808430       219.762300       -10.213920       224.116100      -131.749100       228.239900       107.315900        59.991610        -0.021515
1643124159.0000    310598.300000       -66.086030    309373.300000       173.871800    309437.400000        54.300950       219.879900       -12.542500       223.817100      -134.267600       227.853300       104.985600        59.993010        -0.038452
1643124160.0000    310559.200000       -67.692570    309308.600000       172.255700    309340.400000        52.698600       219.926100       -14.320470       223.741500      -135.979400       228.325600       103.208400        59.996380        -0.018082
1643124161.0000    310661.100000       -68.771970    309410.500000       171.182100    309478.300000        51.623140       220.279900       -15.345010       224.245500      -136.942900       227.675100       102.280600        59.998480         0.045090
1643124162.0000    310644.300000       -69.183250    309378.400000       170.761400    309408.300000        51.208770       220.054700       -15.933530       224.902600      -137.511100       228.448700       101.666500        59.998390        -0.056305
1643124163.0000    310577.000000       -69.175350    309344.300000       170.773200    309373.800000        51.217370       220.165500       -15.783580       224.850100      -137.410100       228.000300       101.671200        60.000030        -0.058594
1643124164.0000    310606.700000       -69.195560    309377.800000       170.752700    309380.800000        51.191950       219.822100       -15.847960       224.358800      -137.459600       228.215600       101.664500        60.000360         0.016022
1643124165.0000    310661.700000       -69.401090    309464.400000       170.548800    309469.500000        50.983920       219.400100       -16.032010       223.703300      -137.456900       227.569300       101.632500        60.002690         0.250397
1643124166.0000    310473.000000       -69.563370    309294.800000       170.400200    309350.300000        50.825290       219.699300       -16.244750       223.894600      -137.724800       227.829900       101.487100        60.003750         0.180817
1643124167.0000    310520.300000       -70.456050    309256.800000       169.509900    309376.200000        49.946780       219.578400       -17.206520       223.789700      -138.817400       228.064100       100.307400        59.996720        -0.016708
1643124168.0000    310603.800000       -72.056920    309357.300000       167.914600    309500.400000        48.347170       219.931500       -18.585590       223.853800      -140.051100       228.269800        99.090440        59.995880         0.024261
1643124169.0000    310536.900000       -73.855730    309259.300000       166.115400    309406.700000        46.553120       220.216800       -20.373010       223.617700      -141.938100       227.598000        97.241130        59.993880        -0.007095
1643124170.0000    310567.800000       -76.486590    309252.000000       163.488000    309435.400000        43.924230       219.942200       -22.961090       223.238500      -144.698700       227.890300        94.715030        59.989910        -0.119934
1643124171.0000    310542.200000       -79.578190    309291.100000       160.395000    309448.800000        40.827260       219.632100       -26.385060       224.114100      -147.818800       228.015300        91.345950        59.992260         0.065689
1643124172.0000    310506.600000       -83.449390    309221.000000       156.525300    309398.300000        36.961270       220.261800       -30.081990       223.744500      -151.874000       227.960400        87.386410        59.988250         0.010757
1643124173.0000    310560.100000       -88.262300    309291.700000       151.711900    309457.000000        32.142720       219.686300       -34.847040       223.487000      -156.542800       227.470700        82.649850        59.986970         0.072098
1643124174.0000    310402.400000       -93.898220    309151.400000       146.076100    309291.800000        26.504630       219.262500       -40.704650       222.684600      -162.328100       226.806000        77.041420        59.981930        -0.087662
1643124175.0000    310524.600000      -100.646800    309270.300000       139.319200    309382.600000        19.754610       218.730400       -47.268140       222.961900      -168.827100       226.786000        70.465860        59.981020         0.080566
1643124176.0000    310539.600000      -108.150700    309273.000000       131.820600    309408.900000        12.255100       219.043700       -54.779580       222.928400      -176.427200       227.173300        62.856620        59.979200         0.014420
1643124177.0000    310601.500000      -116.150600    309371.200000       123.829600    309505.900000         4.255265       219.283200       -62.677570       222.615100       175.737500       226.968700        54.922290        59.978660         0.062027
1643124178.0000    310574.100000      -124.018300    309305.900000       115.952000    309439.800000        -3.614125       219.423000       -70.537380       222.698200       167.907700       227.114500        47.113620        59.978490         0.050812
1643124179.0000    310460.100000      -132.616700    309226.100000       107.355100    309367.000000       -12.216970       219.374800       -79.240390       223.467600       158.912100       227.032300        38.413770        59.974160        -0.010757
