Terminal: LT 500  PARANATINGA - CLAUDIA C3
Tensão base: 500 kV
SOC inicial: 1643124120
SOC final: 1643124179
Taxa: 1 fasores/s
Total de frames faltantes: - 

Tempo_(SOC)           VA_mod_(V)     VA_ang_(graus)     VB_mod_(V)     VB_ang_(graus)     VC_mod_(V)     VC_ang_(graus)     IA_mod_(A)     IA_ang_(graus)     IB_mod_(A)     IB_ang_(graus)     IC_mod_(A)     IC_ang_(graus)     Frequência        Delta_Freq     Faltante
1643124120.0000    307452.600000       -44.410940    306130.800000      -163.584900    311360.900000        76.327310      1159.083000       150.678500      1124.557000        30.377050      1151.138000       -87.546140        59.975260        -0.017395
1643124121.0000    307434.100000       -53.519110    306116.600000      -172.691800    311327.400000        67.214340      1157.516000       141.478700      1123.748000        21.189310      1150.546000       -96.718800        59.975660         0.005722
1643124122.0000    307449.300000       -62.921740    306119.800000       177.912600    311373.500000        57.818550      1158.656000       132.109200      1124.473000        11.881890      1151.434000      -106.042400        59.973990         0.044861
1643124123.0000    307532.000000       -72.972010    306233.700000       167.851400    311430.900000        47.759510      1159.364000       122.112000      1124.519000         1.828343      1151.240000      -116.094000        59.972480         0.015793
1643124124.0000    307449.700000       -83.197650    306162.600000       157.630800    311372.300000        37.537290      1158.847000       111.936700      1124.615000        -8.360123      1152.178000      -126.275700        59.971130         0.011902
1643124125.0000    307415.700000       -93.870060    306117.700000       146.958200    311332.800000        26.866180      1159.461000       101.283600      1125.252000       -18.958340      1152.047000      -136.927100        59.968150         0.004349
1643124126.0000    307481.100000      -105.011700    306176.800000       135.809400    311346.100000        15.719670      1159.831000        90.172450      1125.771000       -30.110170      1152.419000      -148.045700        59.969330         0.017395
1643124127.0000    307423.100000      -116.703800    306105.300000       124.124300    311338.500000         4.035919      1156.920000        78.360680      1122.562000       -41.917740      1149.286000      -159.854500        59.967500        -0.038910
1643124128.0000    307466.800000      -127.955800    306148.200000       112.876900    311400.800000        -7.219023      1157.194000        67.055260      1122.558000       -53.209820      1149.493000      -171.140400        59.969540         0.016022
1643124129.0000    307498.300000      -139.332700    306147.600000       101.488300    311364.100000       -18.599620      1157.038000        55.758830      1122.849000       -64.538890      1149.284000       177.501200        59.967000         0.031586
1643124130.0000    307444.800000      -150.714200    306131.700000        90.112100    311352.000000       -29.979590      1158.836000        44.413260      1124.520000       -75.847670      1151.610000       166.224000        59.967860         0.004807
1643124131.0000    307401.300000      -162.206100    306092.400000        78.616700    311286.600000       -41.477400      1159.386000        32.894650      1124.549000       -87.357880      1151.916000       154.711600        59.968120         0.002975
1643124132.0000    307408.100000      -174.501200    306102.000000        66.323900    311306.100000       -53.767060      1156.886000        20.496850      1122.717000       -99.761300      1148.960000       142.290100        59.964580        -0.010071
1643124133.0000    307458.500000       172.526400    306158.500000        53.348660    311355.100000       -66.742900      1157.431000         7.565764      1123.027000      -112.713700      1149.765000       129.371300        59.963900         0.028610
1643124134.0000    307380.500000       158.958200    306091.600000        39.782680    311273.400000       -80.307240      1158.808000        -5.999678      1124.011000      -126.266400      1150.370000       115.819600        59.961800        -0.006180
1643124135.0000    307405.100000       144.658400    306097.700000        25.483880    311292.900000       -94.603230      1157.519000       -20.376220      1122.745000      -140.634400      1149.424000       101.452000        59.958230        -0.052643
1643124136.0000    307432.500000       130.171000    306121.800000        10.994730    311326.300000      -109.092600      1158.071000       -34.827880      1123.286000      -155.101900      1150.033000        86.987000        59.961470         0.062256
1643124137.0000    307412.100000       116.159200    306130.500000        -3.012982    311323.800000      -123.107300      1157.856000       -48.862520      1122.985000      -169.125500      1150.161000        72.946370        59.962510         0.021744
1643124138.0000    307432.800000       102.811300    306136.500000       -16.361210    311364.500000      -136.456700      1157.848000       -62.162360      1123.510000       177.576600      1150.370000        59.662590        59.963750         0.081711
1643124139.0000    307465.700000        90.018650    306154.600000       -29.154340    311387.100000      -149.247500      1157.637000       -74.976590      1122.755000       164.753700      1150.321000        46.839580        59.965090         0.033646
1643124140.0000    307455.000000        77.461490    306152.100000       -41.710590    311368.000000      -161.804900      1156.830000       -87.525480      1122.043000       152.216300      1148.803000        34.289570        59.964960        -0.004578
1643124141.0000    307430.600000        65.447040    306089.800000       -53.723870    311320.800000      -173.814000      1157.791000       -99.500650      1123.288000       140.207100      1149.806000        22.300390        59.966110        -0.010300
1643124142.0000    307436.400000        53.685230    306139.900000       -65.484180    311374.200000       174.421200      1156.813000      -111.295100      1122.101000       128.454300      1148.712000        10.540630        59.967540        -0.000458
1643124143.0000    307410.500000        42.490520    306102.800000       -76.675870    311330.600000       163.227300      1156.832000      -122.454000      1122.305000       117.260400      1149.116000        -0.650549        59.970420         0.014877
1643124144.0000    307356.000000        31.944840    305995.500000       -87.219790    311270.500000       152.692400      1154.848000      -133.112300      1120.792000       106.573700      1147.187000       -11.324660        59.970190        -0.075531
1643124145.0000    307411.700000        21.941780    306099.800000       -97.222730    311359.900000       142.682600      1156.745000      -143.029600      1122.268000        96.688690      1148.994000       -21.225810        59.971740        -0.040741
1643124146.0000    307420.000000        12.282360    306099.700000      -106.879000    311393.900000       133.030300      1158.113000      -152.676800      1123.345000        87.062360      1150.371000       -30.859900        59.972970         0.002747
1643124147.0000    307435.900000         2.738748    306113.600000      -116.433400    311342.100000       123.476400      1157.263000      -162.185200      1123.283000        77.502770      1150.010000       -40.399470        59.972670         0.023575
1643124148.0000    307475.200000        -6.753416    306131.100000      -125.922300    311366.000000       113.991300      1156.915000      -171.756100      1122.257000        67.966850      1149.087000       -49.935830        59.975290         0.050583
1643124149.0000    307401.300000       -15.795920    306060.100000      -134.970200    311294.900000       104.942000      1156.216000       179.103100      1121.981000        58.846790      1148.406000       -59.061330        59.975150        -0.009384
1643124150.0000    307436.000000       -24.307900    306108.500000      -143.480600    311345.500000        96.432620      1156.038000       170.686700      1121.761000        50.375520      1148.169000       -67.517940        59.977110        -0.004578
1643124151.0000    307465.100000       -31.820600    306137.300000      -150.994800    311357.500000        88.917660      1157.409000       163.165100      1122.862000        42.896420      1149.910000       -75.030300        59.979460         0.025864
1643124152.0000    307414.400000       -38.746720    306111.700000      -157.922700    311314.300000        81.987950      1157.498000       156.234700      1123.012000        35.940710      1149.866000       -81.962240        59.981910         0.004120
1643124153.0000    307380.800000       -45.136550    306102.600000      -164.320300    311265.300000        75.593170      1156.943000       149.881500      1122.707000        29.620260      1149.838000       -88.313300        59.982230         0.014191
1643124154.0000    307458.100000       -51.130490    306144.800000      -170.312500    311346.100000        69.606510      1157.052000       143.872500      1122.632000        23.563910      1149.692000       -94.361190        59.986510         0.027924
1643124155.0000    307475.300000       -56.165250    306171.800000      -175.338400    311371.800000        64.570660      1158.284000       138.846000      1123.462000        18.554540      1150.359000       -99.382190        59.988540         0.073013
1643124156.0000    307417.600000       -60.458490    306118.400000      -179.634500    311315.900000        60.273240      1156.589000       134.516500      1121.916000        14.233950      1148.419000      -103.662200        59.988570        -0.049210
1643124157.0000    307396.900000       -64.237560    306096.300000       176.589300    311318.500000        56.499060      1157.781000       130.810000      1123.418000        10.563410      1149.793000      -107.380400        59.987240        -0.031586
1643124158.0000    307471.400000       -67.754260    306146.100000       173.068400    311342.400000        52.981330      1155.201000       127.182100      1120.898000         6.886069      1147.690000      -111.008300        59.992600        -0.007782
1643124159.0000    307437.800000       -70.155450    306125.200000       170.663500    311331.600000        50.578260      1156.514000       124.806900      1121.982000         4.565546      1148.416000      -113.363200        59.993560         0.002289
1643124160.0000    307453.600000       -71.906660    306113.400000       168.915800    311347.500000        48.830730      1156.401000       123.071100      1121.577000         2.768215      1148.312000      -115.151400        59.995700         0.007095
1643124161.0000    307394.400000       -72.856350    306086.400000       167.968400    311292.800000        47.878750      1155.557000       122.127700      1121.093000         1.863245      1148.057000      -116.077900        59.996050        -0.060654
1643124162.0000    307414.200000       -73.357960    306128.500000       167.462300    311301.000000        47.374950      1154.995000       121.639200      1121.070000         1.363679      1148.054000      -116.581300        59.998440         0.002518
1643124163.0000    307422.600000       -73.351430    306106.400000       167.473200    311312.100000        47.383780      1156.058000       121.687200      1120.944000         1.444658      1148.423000      -116.504700        60.000630        -0.018082
1643124164.0000    307521.100000       -73.440350    306212.100000       167.382200    311405.100000        47.296190      1155.807000       121.597300      1121.139000         1.290398      1148.094000      -116.615000        60.000890         0.022888
1643124165.0000    307481.300000       -73.487610    306163.500000       167.331800    311343.400000        47.244050      1156.834000       121.579400      1122.591000         1.298950      1149.318000      -116.619800        60.000650         0.070038
1643124166.0000    307363.900000       -73.791140    306071.300000       167.037400    311294.000000        46.944210      1156.601000       121.233100      1121.711000         0.947622      1149.023000      -116.982200        59.998890         0.019226
1643124167.0000    307462.900000       -74.733500    306145.500000       166.088300    311348.600000        46.004380      1156.311000       120.356400      1122.049000         0.092490      1148.768000      -117.836400        59.994850        -0.031128
1643124168.0000    307439.300000       -76.111790    306122.800000       164.712400    311335.200000        44.626450      1155.161000       118.921700      1120.852000        -1.350918      1147.050000      -119.266800        59.995580         0.009613
1643124169.0000    307419.600000       -77.991970    306108.300000       162.832200    311314.600000        42.744220      1154.173000       117.019600      1119.940000        -3.246747      1146.718000      -121.186400        59.993530         0.036163
1643124170.0000    307433.300000       -80.563100    306090.800000       160.259800    311305.100000        40.172710      1154.764000       114.387500      1120.239000        -5.883472      1146.836000      -123.799100        59.991780        -0.042114
1643124171.0000    307465.100000       -83.698840    306122.600000       157.124200    311335.400000        37.038700      1155.883000       111.359500      1121.950000        -8.935409      1148.819000      -126.875500        59.989140        -0.056992
1643124172.0000    307483.000000       -87.618180    306139.500000       153.202900    311348.600000        33.120500      1155.122000       107.364100      1120.793000       -12.883190      1147.186000      -130.849400        59.988340         0.019913
1643124173.0000    307455.300000       -88.134740    306161.300000       152.691900    311346.400000        32.596800      1154.599000       106.863000      1120.021000       -13.401760      1147.057000      -131.338100        59.989010         0.075073          *
1643124174.0000    307455.300000       -88.134740    306161.300000       152.691900    311346.400000        32.596800      1154.599000       106.863000      1120.021000       -13.401760      1147.057000      -131.338100        59.989010         0.075073          *
1643124175.0000    307455.300000       -88.134740    306161.300000       152.691900    311346.400000        32.596800      1154.599000       106.863000      1120.021000       -13.401760      1147.057000      -131.338100        59.989010         0.075073          *
1643124176.0000    307455.300000       -88.134740    306161.300000       152.691900    311346.400000        32.596800      1154.599000       106.863000      1120.021000       -13.401760      1147.057000      -131.338100        59.989010         0.075073          *
1643124177.0000    307455.300000       -88.134740    306161.300000       152.691900    311346.400000        32.596800      1154.599000       106.863000      1120.021000       -13.401760      1147.057000      -131.338100        59.989010         0.075073          *
1643124178.0000    307455.300000       -88.134740    306161.300000       152.691900    311346.400000        32.596800      1154.599000       106.863000      1120.021000       -13.401760      1147.057000      -131.338100        59.989010         0.075073          *
1643124179.0000    307455.300000       -88.134740    306161.300000       152.691900    311346.400000        32.596800      1154.599000       106.863000      1120.021000       -13.401760      1147.057000      -131.338100        59.989010         0.075073          *
