Terminal: LT 500  S.DA MESA - SAMAMBAIA C2
Tensão base: 500 kV
SOC inicial: 1643124120
SOC final: 1643124179
Taxa: 1 fasores/s
Total de frames faltantes: - 

Tempo_(SOC)           VA_mod_(V)     VA_ang_(graus)     VB_mod_(V)     VB_ang_(graus)     VC_mod_(V)     VC_ang_(graus)     IA_mod_(A)     IA_ang_(graus)     IB_mod_(A)     IB_ang_(graus)     IC_mod_(A)     IC_ang_(graus)     Frequência        Delta_Freq     Faltante
1643124120.0000    307418.300000        81.218150    307121.700000      -158.686200    306679.600000       -38.745690       975.017500        85.643450      1001.361000      -155.949500       997.485200       -34.239450        59.974230        -0.014844
1643124121.0000    307368.300000        72.189190    307072.100000      -167.708000    306596.200000       -47.772390       978.259300        76.568750      1002.983000      -164.958500       999.752500       -43.238480        59.972680        -0.116862
1643124122.0000    307349.200000        62.746130    307056.700000      -177.142300    306542.300000       -57.207740       978.015400        67.155960      1003.942000      -174.442000       999.733000       -52.776350        59.972320         0.028304
1643124123.0000    307361.900000        52.738860    307082.400000       172.850800    306546.200000       -67.216300       978.016900        57.175260      1003.185000       175.619800      1000.431000       -62.722720        59.970860        -0.159189
1643124124.0000    307428.300000        42.410540    307140.000000       162.525600    306597.300000       -77.543870       975.265100        46.834490      1001.950000       165.245500       996.829500       -73.009450        59.970950        -0.061363
1643124125.0000    307310.400000        31.781690    307027.600000       151.900600    306462.200000       -88.169060       976.735200        36.145750      1002.553000       154.635300       997.668200       -83.632890        59.969090         0.001413
1643124126.0000    307317.100000        20.638690    307031.600000       140.743500    306535.800000       -99.320470       975.828900        25.032940      1002.710000       143.476400       997.942900       -94.776770        59.967200        -0.071404
1643124127.0000    307373.500000         9.059310    307070.300000       129.169100    306558.000000      -110.902800       977.473600        13.414410      1002.709000       131.904800       999.513000      -106.393400        59.965980        -0.118273
1643124128.0000    307584.600000        -2.357369    307258.800000       117.755700    306740.400000      -122.318700       972.608300         2.022320       997.953500       120.544000       995.101200      -117.805700        59.969540         0.096384
1643124129.0000    307348.400000       -13.540690    307033.500000       106.568800    306526.500000      -133.501400       978.043600        -9.113361      1004.599000       109.302200       999.932600      -129.086200        59.966870        -0.132171
1643124130.0000    307368.400000       -25.005080    307056.400000        95.104160    306559.600000      -144.967600       977.635700       -20.522120      1003.607000        97.924070      1000.018000      -140.505200        59.967200         0.067374
1643124131.0000    307264.400000       -36.514310    306971.900000        83.597390    306436.500000      -156.472400       977.481200       -32.064670      1002.004000        86.337650       997.808600      -152.063000        59.965480        -0.257824
1643124132.0000    307119.900000       -48.596140    306779.700000        71.514070    306285.500000      -168.560500       982.057600       -44.282680      1007.945000        74.180430      1003.798000      -164.141800        59.964000        -0.097250
1643124133.0000    307204.100000       -61.697070    306909.100000        58.411770    306390.000000       178.342800       980.279400       -57.279030      1004.003000        61.171540      1002.519000      -177.200800        59.962210        -0.109359
1643124134.0000    307306.500000       -75.344440    306986.200000        44.761440    306506.200000       164.692200       977.045300       -71.066120      1002.766000        47.450170       999.198400       169.177400        59.961720         0.018685
1643124135.0000    307178.000000       -89.510700    306873.900000        30.596070    306381.000000       150.528700       979.722400       -85.122710      1007.056000        33.228940      1002.131000       154.975200        59.959370        -0.072871
1643124136.0000    307384.800000      -104.100900    307080.800000        16.013260    306547.100000       135.941300       978.461500       -99.727670      1001.840000        18.720720       998.910700       140.371000        59.959250        -0.081478
1643124137.0000    307288.100000      -118.023800    306974.300000         2.092727    306431.900000       122.019100       978.590300      -113.629500      1003.671000         4.729150      1001.452000       126.476500        59.962050         0.055196
1643124138.0000    307148.500000      -131.270200    306817.300000       -11.155260    306290.900000       108.768700       982.507900      -126.955800      1007.750000        -8.514606      1004.587000       113.210500        59.962950         0.037898
1643124139.0000    307290.500000      -144.126600    306929.500000       -24.005800    306392.300000        95.910860       981.701600      -139.709000      1005.561000       -21.334280      1002.393000       100.331500        59.964930         0.098268
1643124140.0000    307165.200000      -156.563800    306798.100000       -36.443180    306260.700000        83.472480       982.992400      -152.209200      1009.149000       -33.767660      1004.954000        87.948440        59.965290         0.050042
1643124141.0000    307203.100000      -168.668600    306827.800000       -48.552050    306311.700000        71.363140       981.658300      -164.302700      1007.434000       -45.817370      1002.901000        75.712050        59.965090         0.093465
1643124142.0000    307154.800000       179.675800    306749.800000       -60.205710    306243.100000        59.704530       983.850800      -175.976500      1009.961000       -57.562100      1006.011000        64.011180        59.967590        -0.073362
1643124143.0000    307288.300000       168.437800    306882.200000       -71.444460    306382.600000        48.464800       981.340600       172.730300      1006.184000       -68.796390      1003.712000        52.849330        59.969840         0.027584
1643124144.0000    307330.200000       157.902100    306861.100000       -81.980720    306397.900000        37.919480       980.365500       162.204500      1007.145000       -79.324620      1003.312000        42.353480        59.970750        -0.079819
1643124145.0000    307164.700000       147.950500    306723.100000       -91.939760    306276.100000        27.968810       984.043300       152.327100      1009.886000       -89.267500      1005.804000        32.387030        59.970570        -0.191238
1643124146.0000    307178.800000       138.265500    306796.000000      -101.636900    306380.700000        18.286250       982.934000       142.695600      1008.948000       -98.954900      1005.331000        22.696970        59.970360        -0.178846
1643124147.0000    307101.900000       128.751700    306893.800000      -111.133400    306302.700000         8.809251       983.749400       133.057500      1009.517000      -108.524600      1008.033000        13.142460        59.974250        -0.075635
1643124148.0000    307172.500000       119.227200    306947.400000      -120.655100    306373.700000        -0.715987       983.140400       123.573500      1008.345000      -118.022700      1005.512000         3.687314        59.974510        -0.011674
1643124149.0000    307254.700000       110.147100    307044.300000      -129.742000    306486.100000        -9.797373       979.679600       114.498800      1006.637000      -127.051400      1002.863000        -5.469117        59.975730        -0.010673
1643124150.0000    307298.500000       101.594400    307064.600000      -138.292500    306505.400000       -18.352090       980.680700       105.987300      1007.452000      -135.646000      1002.150000       -13.977720        59.976010        -0.099248
1643124151.0000    307340.800000        93.966400    307131.800000      -145.930100    306594.700000       -25.981940       978.861500        98.373730      1003.843000      -143.231400      1000.692000       -21.527020        59.979090        -0.047514
1643124152.0000    307211.800000        87.137570    307024.200000      -152.757200    306463.100000       -32.809570       981.749600        91.428930      1007.724000      -150.085400      1003.213000       -28.393800        59.980480        -0.153269
1643124153.0000    307307.700000        80.678770    307096.200000      -159.215800    306553.700000       -39.267150       980.119300        85.016710      1004.792000      -156.449700      1002.438000       -34.777550        59.981140        -0.104928
1643124154.0000    307400.200000        74.615550    307166.100000      -165.283200    306657.100000       -45.338740       979.392300        78.964360      1004.206000      -162.657100      1000.112000       -40.861330        59.984110        -0.129724
1643124155.0000    307388.000000        69.587660    307155.100000      -170.306900    306627.100000       -50.363830       978.528400        73.943930      1003.098000      -167.640700      1002.486000       -45.957790        59.986760         0.098786
1643124156.0000    307345.200000        65.292690    307114.700000      -174.601300    306587.000000       -54.656200       979.834200        69.676100      1004.092000      -171.952700      1000.634000       -50.228170        59.986850        -0.229482
1643124157.0000    307278.900000        61.546580    307010.400000      -178.353800    306530.200000       -58.412380       980.372900        65.848270      1004.728000      -175.628100      1001.280000       -53.995540        59.988500        -0.029502
1643124158.0000    307405.300000        58.027000    307157.400000       178.126000    306670.200000       -61.929450       980.980300        62.329590      1004.363000      -179.228100      1002.437000       -57.582300        59.991280        -0.052719
1643124159.0000    307528.900000        55.506620    307273.100000       175.607700    306765.800000       -64.450650       975.191200        59.872830      1001.548000       178.317300       997.575700       -59.992300        59.992560        -0.111766
1643124160.0000    307387.600000        53.899880    307127.300000       173.996300    306652.300000       -66.059750       980.165300        58.234120      1003.377000       176.633500      1000.520000       -61.641190        59.996260        -0.001245
1643124161.0000    307496.200000        52.851990    307238.300000       172.949600    306755.700000       -67.107110       976.964900        57.152580      1002.252000       175.613900      1000.585000       -62.731710        59.997250        -0.034786
1643124162.0000    307389.300000        52.408040    307166.200000       172.497000    306710.800000       -67.547980       979.254500        56.730150      1004.581000       175.201300      1000.113000       -63.109410        59.997530        -0.106136
1643124163.0000    307350.900000        52.421270    307140.900000       172.516600    306646.000000       -67.530160       977.800700        56.744260      1003.998000       175.175300      1000.510000       -63.071300        59.999620        -0.127429
1643124164.0000    307359.900000        52.405760    307170.000000       172.500500    306671.400000       -67.542780       977.772000        56.786350      1005.635000       175.164400      1000.993000       -63.126430        59.999620        -0.175974
1643124165.0000    307497.400000        52.174060    307351.600000       172.282500    306762.800000       -67.761410       975.883200        56.490010      1001.674000       175.041800       998.815200       -63.233620        60.003460         0.411911
1643124166.0000    307430.800000        52.030430    307054.100000       172.154600    306527.900000       -67.934870       978.057600        56.366570      1004.743000       174.805700      1001.062000       -63.462090        60.003590        -0.006665
1643124167.0000    307319.600000        51.143380    306999.500000       171.225900    306620.700000       -68.833000       980.093000        55.526300      1005.099000       173.857200      1001.822000       -64.382970        59.993380        -0.337050
1643124168.0000    307582.700000        49.549660    307178.400000       169.648200    306761.600000       -70.431790       973.847500        54.002600       999.374300       172.344000       996.076500       -65.932790        59.994690        -0.243804
1643124169.0000    307494.000000        47.747790    307152.800000       167.840700    306739.900000       -72.226880       975.383700        52.065110      1000.228000       170.598000       996.953200       -67.738170        59.993030        -0.136758
1643124170.0000    307505.300000        45.153640    307119.900000       165.246100    306730.000000       -74.829260       975.117300        49.460770      1000.370000       167.983200       995.899700       -70.356430        59.989770        -0.162585
1643124171.0000    307512.700000        42.036420    307120.000000       162.131700    306716.800000       -77.944530       976.557900        46.435180      1001.747000       164.830600       997.109900       -73.463490        59.991320        -0.075878
1643124172.0000    307426.300000        38.184130    307028.100000       158.275100    306654.600000       -81.800600       977.501600        42.498930      1004.000000       160.970600      1000.370000       -77.353190        59.988180         0.043209
1643124173.0000    307475.300000        33.352090    307080.300000       153.450900    306670.200000       -86.627920       976.488500        37.772190      1000.221000       156.185500       998.589400       -82.105200        59.985820         0.062931
1643124174.0000    307335.400000        27.702950    306952.800000       147.801100    306522.400000       -92.274990       979.538200        32.004030      1004.103000       150.471300      1000.837000       -87.899700        59.982500        -0.163075
1643124175.0000    307479.800000        20.951420    307094.400000       141.053100    306660.400000       -99.026370       976.090400        25.308460      1002.584000       143.741100       999.029300       -94.591710        59.979690        -0.021651
1643124176.0000    307487.700000        13.449400    307113.400000       133.549800    306680.600000      -106.526900       974.431000        17.848420      1002.851000       136.325000       998.462800      -102.151000        59.979300         0.009530
1643124177.0000    307651.400000         5.468542    307208.300000       125.581800    306744.100000      -114.514000       975.508500         9.903303       999.814100       128.307400       995.856100      -110.057200        59.978450         0.110460
1643124178.0000    307561.400000        -2.398842    307165.800000       117.706100    306723.100000      -122.376500       974.381800         1.955531      1001.101000       120.482200       996.764200      -117.796200        59.977890         0.095637
1643124179.0000    307385.600000       -10.972940    306967.100000       109.137000    306492.600000      -130.949700       980.350800        -6.601630      1004.284000       111.839400      1000.544000      -126.439000        59.973080        -0.136862
