Terminal: LT 525  AREIA - SEGREDO C1
Tensão base: 525 kV
SOC inicial: 1643124120
SOC final: 1643124179
Taxa: 1 fasores/s
Total de frames faltantes: - 

Tempo_(SOC)           VA_mod_(V)     VA_ang_(graus)     VB_mod_(V)     VB_ang_(graus)     VC_mod_(V)     VC_ang_(graus)     IA_mod_(A)     IA_ang_(graus)     IB_mod_(A)     IB_ang_(graus)     IC_mod_(A)     IC_ang_(graus)     Frequência        Delta_Freq     Faltante
1643124120.0000    313786.300000      -113.176600    312880.300000       126.736700    314348.300000         6.665254       942.426600        77.446370       981.891100       -44.224720       948.744600      -166.131600        59.974830        -0.014877
1643124121.0000    313739.800000      -122.283500    312928.500000       117.657500    314450.100000        -2.444242       942.829200        68.333470       979.629600       -53.215000       949.524700      -175.053400        59.974340        -0.029526
1643124122.0000    313704.700000      -131.720900    312834.200000       108.212800    314365.800000       -11.876250       945.045500        58.842840       982.252600       -62.737190       951.367200       175.440000        59.973590         0.040741
1643124123.0000    313752.500000      -141.658400    312944.800000        98.284470    314479.900000       -21.818960       943.699500        48.963550       981.120600       -72.585000       950.673100       165.586900        59.972780         0.027237
1643124124.0000    313832.900000      -151.846200    312944.300000        88.093830    314508.500000       -31.997070       944.360200        38.843380       981.232500       -82.777470       949.771400       155.446600        59.971290         0.011673
1643124125.0000    313743.900000      -162.559500    312845.900000        77.355440    314287.400000       -42.722040       943.885300        28.002480       982.737200       -93.639520       950.207000       144.469000        59.970430         0.039597
1643124126.0000    313703.200000      -173.799000    312919.300000        66.124980    314337.200000       -53.967610       943.525300        16.742530       982.585400      -104.838700       950.686100       133.238200        59.967800        -0.015106
1643124127.0000    313719.300000       174.575900    312827.900000        54.524890    314434.200000       -65.568090       944.708600         5.102770       980.082300      -116.509700       949.419200       121.770000        59.967800         0.019913
1643124128.0000    313758.300000       163.415700    312882.200000        43.348720    314390.700000       -76.739750       944.619000        -6.037665       982.738600      -127.660600       950.885500       110.484700        59.968230         0.019684
1643124129.0000    313744.900000       151.866900    312899.000000        31.782240    314327.400000       -88.301930       941.989100       -17.620870       981.094800      -139.237800       948.841900        98.845820        59.967870         0.016022
1643124130.0000    313871.900000       140.571300    313048.200000        20.514510    314581.000000       -99.584180       941.985200       -28.752380       978.424400      -150.339900       947.613700        87.863320        59.970030         0.078506
1643124131.0000    313590.400000       128.954800    312755.400000         8.872739    314205.600000      -111.216800       942.828200       -40.573340       981.901900      -162.147000       950.282900        75.929060        59.966770        -0.009155
1643124132.0000    313628.200000       116.648300    312781.800000        -3.441994    314179.300000      -123.521400       942.906800       -52.892940       982.569900      -174.524200       949.873000        63.550000        59.965610         0.003891
1643124133.0000    313627.600000       103.706500    312873.000000       -16.370400    314287.300000      -136.473700       942.155000       -65.909350       980.579200       172.600400       950.262800        50.642950        59.962300        -0.094757
1643124134.0000    313622.300000        90.167580    312764.900000       -29.922770    314190.200000      -150.003400       942.614600       -79.351900       981.404200       159.007300       949.013000        37.113770        59.961400        -0.008240
1643124135.0000    313785.300000        75.897040    312930.700000       -44.181390    314404.300000      -164.264100       942.576200       -93.534870       980.751800       144.860600       949.180000        22.995650        59.959660        -0.027466
1643124136.0000    313766.800000        61.417090    312927.600000       -58.650220    314420.100000      -178.741500       942.581500      -108.008100       979.649200       130.398900       948.713300         8.603530        59.959580        -0.024261
1643124137.0000    313741.600000        47.341880    312831.900000       -72.721830    314396.200000       167.191300       942.697900      -122.227100       979.756200       116.129500       947.838600        -5.671886        59.962760         0.054932
1643124138.0000    313888.500000        33.898670    313036.100000       -86.154620    314614.200000       153.747800       942.110900      -135.549500       978.165800       102.841300       947.407500       -18.902660        59.963650        -0.020828
1643124139.0000    313670.500000        21.177310    312826.900000       -98.906490    314262.000000       141.008000       944.124800      -148.390200       982.791300        89.972410       950.679300       -31.905290        59.965370         0.046463
1643124140.0000    313770.900000         8.574500    312957.500000      -111.487400    314480.500000       128.413700       942.489100      -160.908500       980.091700        77.523020       949.299700       -44.320680        59.965930         0.021744
1643124141.0000    313660.500000        -3.459736    312801.800000      -123.530600    314272.700000       116.384100       944.460400      -173.129700       981.915700        65.208620       949.802400       -56.594370        59.967740         0.038223
1643124142.0000    313646.600000       -15.214420    312836.000000      -135.298600    314240.300000       104.616400       942.321300       175.256000       981.858500        53.639520       949.710100       -68.296490        59.967410        -0.000916
1643124143.0000    313729.300000       -26.370700    312960.500000      -146.435500    314451.400000        93.464290       944.656100       164.091400       982.365400        42.519650       951.316200       -79.317040        59.968700        -0.015335
1643124144.0000    313824.600000       -36.854730    312956.600000      -156.926500    314461.900000        82.986920       943.432300       153.711000       980.906200        32.118030       950.024600       -89.705730        59.971000        -0.017853
1643124145.0000    313686.000000       -47.023120    312834.900000      -167.080300    314391.900000        72.824590       943.523100       143.382700       979.355700        21.797900       949.399200       -99.969070        59.972380        -0.016022
1643124146.0000    313660.000000       -56.669820    312770.500000      -176.725700    314345.800000        63.182750       945.900900       133.709100       982.626000        12.098780       951.517400      -109.682700        59.975320         0.098419
1643124147.0000    313751.300000       -66.220450    312894.100000       173.706100    314392.500000        53.619140       943.505400       124.206200       980.996400         2.609692       949.582900      -119.230800        59.973280        -0.024719
1643124148.0000    313701.600000       -75.598750    312817.300000       164.327500    314289.800000        44.246160       944.686700       114.848200       982.159700        -6.809586       950.425900      -128.610300        59.973270        -0.084457
1643124149.0000    313718.600000       -84.634520    312839.500000       155.284200    314302.300000        35.204910       943.928000       105.825600       982.021700       -15.814800       949.988100      -137.644800        59.975660        -0.013046
1643124150.0000    313822.600000       -93.181180    312868.100000       146.740500    314382.100000        26.669030       944.402600        97.277090       982.090500       -24.412390       949.436600      -146.221300        59.977560         0.053329
1643124151.0000    313741.400000      -100.705400    312890.200000       139.230300    314425.400000        19.137310       942.551000        89.723350       979.913300       -31.883020       948.818100      -153.704600        59.980150         0.016708
1643124152.0000    313833.600000      -107.655900    313003.400000       132.278400    314488.600000        12.184010       942.277300        82.870390       979.430700       -38.734430       948.078100      -160.552800        59.981720        -0.026779
1643124153.0000    313752.100000      -114.066700    312967.700000       125.859100    314410.600000         5.760812       945.761400        76.459500       983.481600       -45.110810       952.695700      -166.961700        59.983280         0.034332
1643124154.0000    313696.600000      -119.886800    312812.100000       120.024800    314230.400000        -0.052622       949.285300        70.570660       988.287800       -51.078210       955.361500      -172.967100        59.985580         0.021286
1643124155.0000    313763.400000      -124.994800    312905.000000       114.931200    314376.800000        -5.156494       950.898500        65.526750       988.767000       -56.072590       957.362700      -177.918500        59.987510         0.013275
1643124156.0000    313709.900000      -129.097900    312922.000000       110.837600    314417.300000        -9.264174       952.973300        61.392270       990.343600       -60.133660       960.165700       178.035400        59.988270        -0.021286
1643124157.0000    313776.100000      -133.042100    312945.500000       106.889300    314456.100000       -13.208000       952.774300        57.444590       990.156100       -64.110950       959.231000       174.066800        59.990610         0.048523
1643124158.0000    313728.000000      -136.471400    312879.000000       103.460500    314404.800000       -16.635460       953.136400        53.952740       989.978800       -67.622660       959.242000       170.571500        59.992360         0.005951
1643124159.0000    313570.300000      -138.865400    312727.800000       101.079900    314300.800000       -19.024720       953.245400        51.405200       989.058700       -70.174800       958.724000       168.079500        59.993520        -0.007782
1643124160.0000    313761.900000      -140.643400    312901.200000        99.278430    314397.800000       -20.809810       952.659500        49.780070       990.698600       -71.792190       959.192600       166.354200        59.996150        -0.035248
1643124161.0000    313666.300000      -141.550800    312805.200000        98.380500    314343.700000       -21.712720       954.133200        48.857250       991.908100       -72.723760       960.447600       165.450900        59.997720        -0.019913
1643124162.0000    313579.500000      -142.120700    312747.300000        97.796710    314203.600000       -22.291200       951.697900        48.170620       990.503100       -73.404430       958.918900       164.687500        59.997860        -0.089722
1643124163.0000    313502.700000      -142.224500    312570.600000        97.696040    314094.800000       -22.378920       952.821300        48.007720       991.449600       -73.665540       958.391500       164.503800        59.999770         0.005722
1643124164.0000    313556.100000      -142.198700    312752.800000        97.713200    314155.900000       -22.379210       950.848900        48.038370       990.098400       -73.492100       959.002900       164.586500        60.001530         0.029297
1643124165.0000    313562.000000      -142.202700    312802.100000        97.730190    314280.200000       -22.379280       951.233800        48.057440       988.481100       -73.445850       959.110000       164.715900        59.999180        -0.019226
1643124166.0000    313513.600000      -142.629700    312598.800000        97.310170    314204.500000       -22.778590       952.663000        47.604320       988.578400       -74.004840       957.875100       164.269800        59.997790        -0.024261
1643124167.0000    313496.100000      -143.616100    312758.200000        96.300490    314166.200000       -23.799840       949.042200        46.573470       987.048300       -74.945340       956.915000       163.185900        59.998410         0.055847
1643124168.0000    313520.000000      -144.728800    312803.900000        95.181720    314160.000000       -24.922870       948.643600        45.510720       987.412400       -75.954580       957.499600       162.116100        59.995640        -0.033646
1643124169.0000    313460.000000      -146.730300    312686.800000        93.218850    314235.100000       -26.894520       950.564500        43.442710       987.027300       -78.101520       956.922300       160.126800        59.993180        -0.002289
1643124170.0000    313574.700000      -149.228100    312706.800000        90.703350    314234.500000       -29.382590       950.266700        41.155760       987.114800       -80.464900       956.037200       157.750900        59.991820         0.006638
1643124171.0000    313576.500000      -152.469300    312758.900000        87.450020    314230.400000       -32.640810       949.048400        37.838050       986.928700       -83.753250       955.638200       154.395900        59.990020         0.005264
1643124172.0000    313571.700000      -156.414500    312675.100000        83.510990    314164.300000       -36.569180       950.970800        33.891670       988.495900       -87.730040       956.883700       150.461300        59.989010         0.069122
1643124173.0000    313584.000000      -161.164100    312748.700000        78.763080    314227.000000       -41.330580       949.820800        29.062710       987.690100       -92.535250       956.204300       145.608900        59.986180         0.010529
1643124174.0000    313558.000000      -167.102100    312677.000000        72.815350    314123.900000       -47.262880       949.262900        23.124080       987.600300       -98.515430       955.305500       139.639900        59.982200        -0.012360
1643124175.0000    313554.900000      -173.706900    312723.100000        66.226880    314237.200000       -53.870310       949.511800        16.487690       986.470100      -105.112000       955.787500       133.103200        59.980240        -0.022202
1643124176.0000    313519.300000       178.805500    312697.400000        58.746950    314229.700000       -61.354160       950.026700         8.989503       986.351000      -112.617500       955.597000       125.623100        59.977530        -0.037308
1643124177.0000    313629.000000       171.055100    312730.400000        50.979180    314252.400000       -69.102230       950.500400         1.396077       987.387000      -120.235600       956.221800       117.962000        59.978300        -0.009155
1643124178.0000    313496.900000       163.050700    312634.400000        42.973430    314111.500000       -77.112000       949.616200        -6.785624       988.346600      -128.394400       956.190400       109.733100        59.977760         0.054016
1643124179.0000    313526.300000       154.259000    312745.700000        34.186220    314196.400000       -85.911620       949.266500       -15.589810       987.311300      -137.150700       956.090800       100.975200        59.975650         0.025864
