Terminal: LT 525  C.NOVOS - MACHADINHO C2
Tensão base: 525 kV
SOC inicial: 1643124120
SOC final: 1643124179
Taxa: 1 fasores/s
Total de frames faltantes: - 

Tempo_(SOC)           VA_mod_(V)     VA_ang_(graus)     VB_mod_(V)     VB_ang_(graus)     VC_mod_(V)     VC_ang_(graus)     IA_mod_(A)     IA_ang_(graus)     IB_mod_(A)     IB_ang_(graus)     IC_mod_(A)     IC_ang_(graus)     Frequência        Delta_Freq     Faltante
1643124120.0000    314085.900000      -128.926300    314905.500000       110.968200    313827.100000        -9.151505       584.001700        66.268290       604.324300       -55.930210       576.036100      -177.917900        59.975590         0.013275
1643124121.0000    314041.100000      -138.044900    314863.800000       101.859400    313819.200000       -18.261510       583.864500        57.163490       603.131900       -64.998420       575.773900       173.081600        59.974120        -0.049210
1643124122.0000    314057.500000      -147.492000    314920.400000        92.410610    313848.700000       -27.718120       584.259200        47.729200       603.756300       -74.462580       576.363900       163.634300        59.973250         0.054474
1643124123.0000    314045.200000      -157.402800    314914.800000        82.525960    313979.500000       -37.613660       584.822800        37.863990       604.110200       -84.304560       576.590500       153.805800        59.972310         0.028152
1643124124.0000    314125.900000      -167.584100    314941.300000        72.332430    313977.700000       -47.796620       584.839300        27.718320       603.832500       -94.475300       576.032800       143.644200        59.971500         0.015106
1643124125.0000    314091.200000      -178.302800    314918.400000        61.586710    313796.200000       -58.531240       584.871900        16.887540       605.284300      -105.298100       576.879500       132.710000        59.971160         0.086060
1643124126.0000    314074.600000       170.454500    314914.700000        50.366000    313907.000000       -69.766490       584.483800         5.710449       604.359800      -116.524000       576.770500       121.545800        59.967560        -0.013962
1643124127.0000    313988.900000       158.802700    314794.800000        38.730500    313857.000000       -81.401180       584.690100        -5.979766       603.451200      -128.184900       575.794700       109.948300        59.967590         0.037079
1643124128.0000    314097.300000       147.668400    314969.200000        27.568480    313887.100000       -92.559350       584.867400       -17.117900       604.833400      -139.331100       577.068100        98.750850        59.969060         0.016937
1643124129.0000    314098.900000       136.075800    314928.900000        15.967280    313821.000000      -104.149400       584.043600       -28.739410       604.386700      -150.974200       576.179000        87.051170        59.968220         0.004578
1643124130.0000    314173.500000       124.828500    314985.400000         4.749142    314025.600000      -115.382500       584.380200       -39.861160       603.620400      -162.068300       575.689100        76.062400        59.969410         0.044861
1643124131.0000    313941.400000       113.168900    314734.800000        -6.935437    313659.100000      -127.050200       584.570300       -51.682330       604.660200      -173.896400       576.791900        64.121210        59.966890         0.029068
1643124132.0000    313986.700000       100.866100    314850.400000       -19.248830    313697.100000      -139.370400       584.134600       -63.974270       604.462500       173.819700       576.291600        51.830720        59.966170         0.018082
1643124133.0000    313976.600000        87.920810    314888.800000       -32.172480    313807.000000      -152.309200       584.033000       -76.913160       604.074200       160.937100       576.718800        38.965960        59.962370        -0.078049
1643124134.0000    313983.200000        74.383770    314781.400000       -45.734690    313632.200000      -165.840300       584.296700       -90.406230       604.314100       147.345000       575.893400        25.410120        59.961250        -0.032043
1643124135.0000    314112.700000        60.128950    314916.000000       -59.969300    313856.900000       179.914000       583.846500      -104.622900       603.568700       133.155700       575.658600        11.241950        59.959760        -0.011902
1643124136.0000    314078.700000        45.629230    314922.000000       -74.463090    313888.800000       165.409000       583.710500      -119.126600       602.921400       118.669100       575.330300        -3.199490        59.959510        -0.014648
1643124137.0000    314108.200000        31.568840    314899.200000       -88.524830    313880.300000       151.357900       584.086900      -133.270900       603.406400       104.475500       575.352200       -17.413860        59.962360         0.026093
1643124138.0000    314195.300000        18.126120    314994.300000      -101.959400    314019.200000       137.918200       583.656400      -146.690800       602.555100        91.077840       574.918800       -30.759430        59.964120        -0.011673
1643124139.0000    313975.200000         5.392694    314838.400000      -114.718100    313719.600000       125.161500       584.657600      -159.440400       604.990400        78.343930       576.720000       -43.637960        59.965280         0.044632
1643124140.0000    314046.300000        -7.202497    314905.600000      -127.285000    313908.500000       112.576500       584.131000      -172.037500       603.588700        65.799680       576.226200       -56.126540        59.966420         0.050812
1643124141.0000    314048.800000       -19.239070    314835.300000      -139.335200    313801.300000       100.548000       585.515000       175.812800       605.257300        53.595260       577.054700       -68.321210        59.967400         0.023117
1643124142.0000    314002.500000       -31.008560    314825.200000      -151.106900    313783.100000        88.767800       584.348100       164.110500       604.527800        41.929560       576.588200       -80.072320        59.967420         0.022202
1643124143.0000    314055.800000       -42.143610    314914.900000      -162.223500    313927.400000        77.638400       584.715100       152.959300       604.217900        30.775580       576.785900       -91.147830        59.969440         0.021973
1643124144.0000    314168.700000       -52.628230    314948.700000      -172.724900    313933.500000        67.157070       583.750000       142.559500       603.094800        20.341580       575.629000      -101.548700        59.971490        -0.008011
1643124145.0000    314068.300000       -62.810900    314855.400000       177.091900    313842.200000        56.973920       583.903400       132.263900       603.330300        10.095060       575.893100      -111.799500        59.972310        -0.002518
1643124146.0000    314039.300000       -72.460080    314820.700000       167.456500    313854.900000        47.331890       585.542300       122.574200       604.755000         0.373517       577.088000      -121.542000        59.974450         0.044861
1643124147.0000    314161.600000       -81.996970    314972.600000       157.907800    313931.400000        37.784490       583.890900       113.112200       603.590900        -9.065626       575.964800      -131.007400        59.973350        -0.022888
1643124148.0000    314101.800000       -91.367390    314924.700000       148.533300    313848.800000        28.409780       584.440400       103.747700       604.487500       -18.443510       576.339300      -140.394500        59.973620        -0.070953
1643124149.0000    314112.000000      -100.418300    314916.900000       139.474700    313849.800000        19.358260       584.530400        94.728070       604.574300       -27.497120       576.515300      -149.451700        59.975700        -0.001373
1643124150.0000    314166.400000      -108.989000    314944.300000       130.903100    313865.000000        10.792550       584.355500        86.071060       604.574100       -36.150460       575.924600      -158.073400        59.977590         0.027924
1643124151.0000    313995.200000      -116.532500    314798.700000       123.387300    313842.300000         3.256253       584.689100        78.513390       604.291400       -43.699740       576.528200      -165.609600        59.980010         0.010071
1643124152.0000    314131.400000      -123.463800    314961.900000       116.445700    313961.900000        -3.680017       583.932700        71.661440       603.441200       -50.539650       575.704500      -172.461700        59.981370        -0.024261
1643124153.0000    314149.900000      -129.880300    315035.200000       110.022500    313953.800000       -10.107410       583.891200        65.209090       603.783300       -56.964670       576.275800      -178.940300        59.983640         0.027008
1643124154.0000    314098.700000      -135.707000    314930.200000       104.187000    313824.800000       -15.935590       584.378000        59.362130       604.685600       -62.858010       576.311300       175.186200        59.985180         0.015564
1643124155.0000    314043.400000      -140.865000    314906.900000        99.035130    313820.600000       -21.094360       583.837900        54.187380       603.932300       -67.986180       575.812200       170.062000        59.988000         0.017166
1643124156.0000    313989.500000      -144.940000    314864.800000        94.978470    313868.900000       -25.159780       584.830000        50.126540       604.461600       -72.016260       577.097700       166.052900        59.988160        -0.004578
1643124157.0000    314148.700000      -148.885700    314986.600000        91.016040    313939.400000       -29.112080       584.638600        46.188100       604.376900       -75.985890       576.745300       162.080300        59.990660         0.019226
1643124158.0000    314111.800000      -152.323400    314952.800000        87.582490    313911.700000       -32.545780       584.739900        42.703900       604.531100       -79.470430       576.732700       158.628700        59.991850         0.009613
1643124159.0000    313973.800000      -154.729000    314826.000000        85.184890    313837.400000       -34.947610       585.306900        40.237590       604.588400       -81.982510       577.068900       156.113900        59.993860        -0.019455
1643124160.0000    314092.600000      -156.512400    314928.200000        83.387800    313860.600000       -36.734550       585.152500        38.479150       605.641700       -83.694430       577.407700       154.339000        59.996950        -0.018539
1643124161.0000    314043.200000      -157.403500    314908.700000        82.501110    313848.800000       -37.630010       585.721300        37.640280       605.697000       -84.555660       577.804100       153.523100        59.997220        -0.046234
1643124162.0000    313944.800000      -158.021900    314787.500000        81.878080    313701.300000       -38.247210       584.669400        36.912610       604.992500       -85.248340       577.068800       152.755900        59.997410        -0.076675
1643124163.0000    313941.600000      -158.136700    314702.900000        81.767340    313684.600000       -38.348370       585.508300        36.776830       606.022500       -85.463610       577.296300       152.576600        60.000420         0.014877
1643124164.0000    313955.100000      -158.093900    314840.400000        81.800190    313742.100000       -38.328370       584.862600        36.855870       604.865300       -85.303910       577.193400       152.702000        60.000950         0.000687
1643124165.0000    314023.900000      -158.064000    314922.500000        81.842130    313854.200000       -38.296100       585.007000        36.937920       604.645900       -85.218470       577.171600       152.828100        59.999210        -0.016708
1643124166.0000    313922.100000      -158.515000    314649.600000        81.386440    313631.600000       -38.719760       586.616200        36.474920       606.052800       -85.715730       578.053000       152.371800        59.996960        -0.038681
1643124167.0000    313856.600000      -159.484100    314808.100000        80.405050    313636.500000       -39.734560       585.129000        35.482650       605.278600       -86.668970       577.444500       151.330400        59.999190         0.073013
1643124168.0000    313879.700000      -160.583600    314874.900000        79.305990    313670.600000       -40.836180       585.490700        34.425930       605.853900       -87.651290       578.226600       150.314700        59.994500        -0.023575
1643124169.0000    313803.500000      -162.619900    314670.200000        77.314200    313742.200000       -42.833380       586.034900        32.342820       605.494300       -89.810970       578.400100       148.270900        59.993870         0.028152
1643124170.0000    313908.600000      -165.099700    314689.700000        74.805240    313668.000000       -45.312840       586.153500        30.005410       605.695700       -92.184720       577.955500       145.893800        59.992160         0.052185
1643124171.0000    313985.600000      -168.318600    314870.900000        71.575600    313757.200000       -48.552310       585.710200        26.791920       605.872900       -95.414310       578.025500       142.635100        59.990450         0.007324
1643124172.0000    313909.800000      -172.287000    314674.800000        67.609430    313619.100000       -52.500560       586.653000        22.733400       606.583400       -99.485760       578.386600       138.591200        59.987620         0.006866
1643124173.0000    313981.600000      -176.999800    314839.200000        62.899280    313795.800000       -57.229940       586.706300        18.074420       607.097500      -104.150000       578.800100       133.912000        59.986230        -0.015335
1643124174.0000    313878.400000       177.050500    314762.800000        56.936760    313603.800000       -63.191110       586.716000        12.100550       606.931200      -110.147600       578.782600       127.873300        59.982120        -0.033188
1643124175.0000    313938.300000       170.443000    314811.000000        50.352630    313768.600000       -69.781430       586.740900         5.477171       606.419600      -116.711400       578.590300       121.374500        59.979750        -0.046234
1643124176.0000    313969.000000       162.981000    314815.000000        42.892290    313808.900000       -77.238030       586.731700        -1.967603       606.328200      -124.184200       578.222400       113.909500        59.977810        -0.016708
1643124177.0000    313932.900000       155.209200    314737.700000        35.096090    313625.000000       -85.014630       586.351200        -9.695451       606.567900      -131.955800       578.329500       106.142600        59.978300        -0.013046
1643124178.0000    313877.800000       147.200500    314719.800000        27.106070    313657.800000       -93.020430       586.495700       -17.797730       606.915100      -140.003300       578.653000        98.015010        59.977300         0.056534
1643124179.0000    313953.700000       138.427200    314830.400000        18.329240    313754.300000      -101.800700       586.799400       -26.563080       606.591500      -148.735500       578.781700        89.275400        59.975330        -0.003891
