Terminal: LT 500  RIO DAS EGUAS - ARINOS 2 CN4
Tensão base: 500 kV
SOC inicial: 1643124120
SOC final: 1643124179
Taxa: 1 fasores/s
Total de frames faltantes: - 

Tempo_(SOC)           VA_mod_(V)     VA_ang_(graus)     VB_mod_(V)     VB_ang_(graus)     VC_mod_(V)     VC_ang_(graus)     IA_mod_(A)     IA_ang_(graus)     IB_mod_(A)     IB_ang_(graus)     IC_mod_(A)     IC_ang_(graus)     Frequência        Delta_Freq     Faltante
1643124120.0000    310865.800000       -36.658790    309963.100000      -157.115600    308976.000000        83.259250       403.359300       -30.910840       419.154700      -153.367700       400.805800        87.663990        59.975820         0.041059
1643124121.0000    310791.000000       -45.688320    309916.300000      -166.138300    308945.000000        74.228870       404.607000       -39.846950       420.020100      -162.355900       401.513600        78.707760        59.973970        -0.024223
1643124122.0000    310743.500000       -55.124750    309898.900000      -175.578200    308897.200000        64.785490       405.594400       -49.370780       421.119700      -171.791500       402.751300        69.236340        59.973750        -0.073669
1643124123.0000    310742.500000       -65.121520    309892.600000       174.422700    308884.100000        54.788390       404.939600       -59.379420       420.403700       178.105500       402.046200        59.098180        59.971980        -0.120903
1643124124.0000    310816.300000       -75.458400    309955.500000       164.091200    308979.600000        44.455460       404.093500       -69.652980       419.917800       167.854700       401.314100        48.903600        59.971670         0.061412
1643124125.0000    310701.500000       -86.081890    309884.000000       153.467800    308890.500000        33.825020       404.160700       -80.349960       419.763000       157.165400       401.953400        38.206430        59.969540         0.037540
1643124126.0000    310722.100000       -97.229060    309857.300000       142.311900    308848.000000        22.681230       404.409100       -91.454020       419.965100       146.041000       402.020300        27.086510        59.968230        -0.073772
1643124127.0000    310723.500000      -108.808500    309872.100000       130.736400    308874.600000        11.101980       404.406100      -103.055900       420.451800       134.495600       401.935600        15.483450        59.967700         0.003806
1643124128.0000    310918.700000      -120.226800    310072.700000       119.324100    309097.200000        -0.314645       401.682000      -114.503200       417.386800       123.008200       399.134600         4.016510        59.970410         0.020398
1643124129.0000    310694.500000      -131.399100    309854.500000       108.148000    308858.800000       -11.489610       403.366400      -125.680200       419.195300       111.817100       400.690900        -7.164696        59.967800        -0.025894
1643124130.0000    310718.600000      -142.880900    309865.500000        96.667740    308881.200000       -22.969130       403.725000      -137.155500       419.737800       100.344900       401.238200       -18.647380        59.968160         0.118844
1643124131.0000    310592.200000      -154.372800    309777.100000        85.173510    308761.900000       -34.468800       402.622000      -148.657100       418.764000        88.841730       400.640000       -30.109310        59.965720        -0.073820
1643124132.0000    310512.700000      -166.456600    309643.100000        73.097610    308693.300000       -46.539940       404.517500      -160.728500       420.633500        76.776450       401.661300       -42.200410        59.965150         0.021894
1643124133.0000    310604.200000      -179.560900    309738.500000        59.980800    308728.500000       -59.650600       403.953900      -173.818600       420.778200        63.654380       401.965300       -55.375290        59.963050        -0.169521
1643124134.0000    310696.200000       166.791700    309800.300000        46.335890    308817.600000       -73.291730       402.697100       172.567900       419.445700        50.020890       400.726700       -68.998120        59.962570        -0.033098
1643124135.0000    310583.600000       152.631100    309694.000000        32.173970    308701.300000       -87.453110       403.875200       158.348500       419.845200        35.831900       401.163700       -83.183920        59.959820        -0.037915
1643124136.0000    310731.500000       138.039000    309861.600000        17.582410    308858.200000      -102.047900       402.809200       143.790100       418.970600        21.268260       400.292100       -97.698270        59.961170        -0.058886
1643124137.0000    310635.300000       124.136100    309794.600000         3.685030    308801.200000      -115.952900       403.342100       129.854000       419.442400         7.325837       400.491300      -111.689600        59.962750         0.076778
1643124138.0000    310531.500000       110.890900    309671.600000        -9.561367    308684.600000      -129.195600       404.939800       116.586900       420.796100        -5.915630       402.089500      -124.916900        59.963920        -0.039833
1643124139.0000    310613.900000        98.012730    309778.500000       -22.432840    308813.300000      -142.074500       404.740900       103.758500       420.989400       -18.729650       402.316700      -137.765300        59.965230         0.141207
1643124140.0000    310478.700000        85.591820    309643.800000       -34.856180    308672.600000      -154.496900       405.644200        91.306990       422.134000       -31.144410       403.261800      -150.177400        59.965200         0.003535
1643124141.0000    310561.000000        73.475190    309692.500000       -46.973340    308735.600000      -166.608100       404.880600        79.110900       420.901800       -43.406590       402.394300      -162.381200        59.967730         0.201519
1643124142.0000    310494.800000        61.827370    309651.100000       -58.616120    308704.500000      -178.257300       405.578700        67.529770       421.903700       -54.979700       403.230000      -173.965800        59.967990        -0.007212
1643124143.0000    310602.800000        50.598560    309739.500000       -69.848050    308784.600000       170.515400       404.009200        56.237550       420.301700       -66.270360       401.468300       174.709200        59.970380        -0.056718
1643124144.0000    310606.900000        40.047760    309734.200000       -80.389030    308828.100000       159.970500       404.142800        45.731560       420.444500       -76.733720       401.709500       164.211200        59.972360        -0.078879
1643124145.0000    310470.000000        30.098550    309567.300000       -90.343130    308652.700000       150.023500       405.453000        35.751440       421.596400       -86.713420       403.292600       154.227300        59.971870        -0.055377
1643124146.0000    310536.000000        20.423870    309659.700000      -100.020100    308720.900000       140.342700       405.620700        26.058040       421.657300       -96.360950       403.365100       144.594900        59.973120        -0.051838
1643124147.0000    310494.000000        10.941090    309686.200000      -109.518100    308641.800000       130.841500       405.007500        16.568840       421.345900      -105.864000       402.948800       135.074900        59.973420         0.012205
1643124148.0000    310555.000000         1.420930    309767.500000      -119.041400    308700.700000       121.316400       404.640200         7.058603       420.712100      -115.338900       402.761000       125.589500        59.974070        -0.025861
1643124149.0000    310668.800000        -7.664584    309829.800000      -128.129300    308775.100000       112.238200       404.077600        -2.007980       420.128700      -124.482400       401.941200       116.505600        59.976500        -0.049243
1643124150.0000    310707.200000       -16.227590    309869.900000      -136.692700    308813.300000       103.675200       404.531300       -10.467660       420.595100      -132.949400       402.135600       108.060600        59.976950        -0.036752
1643124151.0000    310794.500000       -23.858100    309955.900000      -144.329200    308872.000000        96.042430       402.669300       -18.171090       418.513700      -140.588500       400.518500       100.337100        59.980670        -0.021373
1643124152.0000    310676.700000       -30.686870    309817.200000      -151.155800    308753.700000        89.218180       403.635500       -25.027490       419.840200      -147.532400       401.284800        93.409230        59.981860        -0.040090
1643124153.0000    310756.000000       -37.158500    309914.500000      -157.624300    308855.200000        82.745670       403.945700       -31.495240       420.381900      -153.980700       401.711000        87.038290        59.982020        -0.126381
1643124154.0000    310881.600000       -43.221390    310019.500000      -163.689400    308957.500000        76.684820       403.518700       -37.455540       419.975100      -159.875500       401.373100        81.109070        59.985130        -0.152702
1643124155.0000    310847.200000       -48.250370    309996.600000      -168.711400    308962.600000        71.657060       404.123900       -42.394730       420.091000      -164.899900       401.613600        76.095250        59.987550         0.055692
1643124156.0000    310793.600000       -52.540220    309944.900000      -173.004500    308896.000000        67.365350       404.314800       -46.716090       420.745800      -169.192300       402.126200        71.761330        59.988430        -0.094891
1643124157.0000    310743.900000       -56.281380    309854.500000      -176.744300    308830.700000        63.631610       404.919200       -50.436360       420.857000      -172.954400       402.624600        68.000820        59.990270        -0.014871
1643124158.0000    310858.200000       -59.809920    309985.400000       179.725300    308945.400000        60.098970       403.778000       -53.892950       420.170700      -176.406600       401.519200        64.575300        59.992160        -0.063193
1643124159.0000    310963.800000       -62.335210    310093.400000       177.204800    309077.700000        57.575420       402.132700       -56.493670       418.186200      -179.019400       399.793900        61.990390        59.994060         0.119157
1643124160.0000    310880.800000       -63.926750    309981.200000       175.604600    308936.800000        55.984740       403.176800       -58.081830       420.097000       179.405000       400.631700        60.427370        59.997450        -0.125657
1643124161.0000    310988.100000       -64.995920    310109.600000       174.540600    309080.300000        54.914330       404.063400       -59.108720       420.279100       178.339000       401.240100        59.285230        59.998140        -0.081764
1643124162.0000    310945.600000       -65.418500    310017.000000       174.110600    308977.200000        54.496220       404.689900       -59.487730       421.167200       178.003500       402.413600        58.964790        60.000110         0.018264
1643124163.0000    310886.400000       -65.405790    309996.700000       174.124900    308945.900000        54.503640       403.740200       -59.465080       420.340500       177.954700       401.366100        58.971350        60.000540        -0.120210
1643124164.0000    310916.300000       -65.421390    310029.200000       174.104300    308952.200000        54.485260       404.288300       -59.490400       420.367500       177.958900       402.086900        58.998050        60.001260        -0.156726
1643124165.0000    310998.900000       -65.645560    310172.000000       173.881500    309071.400000        54.252040       402.088500       -59.864640       418.118400       177.720400       400.078400        58.677590        60.000610         0.024587
1643124166.0000    310785.200000       -65.802080    309969.300000       173.751900    308988.100000        54.107160       403.045000       -59.957130       419.213400       177.597600       401.341300        58.543700        59.999170        -0.125270
1643124167.0000    310803.800000       -66.690610    309882.800000       172.865700    308967.300000        53.236750       403.989600       -60.851850       420.384600       176.699500       401.942800        57.665850        59.996410        -0.140887
1643124168.0000    310963.100000       -68.305800    310058.100000       171.253100    309146.600000        51.620080       402.241700       -62.438900       418.103800       175.110000       400.060300        56.080160        59.995110        -0.082974
1643124169.0000    310924.200000       -70.095410    309998.700000       169.449400    309031.900000        49.826580       402.743200       -64.333470       417.934600       173.168800       399.849800        54.185960        59.994210        -0.153264
1643124170.0000    310912.100000       -72.713840    309979.300000       166.837900    309049.700000        47.212610       403.855200       -66.879940       419.316500       170.569600       400.871300        51.695820        59.990840        -0.073954
1643124171.0000    310917.400000       -75.814180    310011.000000       163.738400    309071.500000        44.108860       403.612800       -70.011510       419.289600       167.466700       400.656400        48.513810        59.991650        -0.088538
1643124172.0000    310843.600000       -79.673670    309895.200000       159.878000    308974.600000        40.255440       404.846500       -73.823130       420.777000       163.680900       401.871700        44.663020        59.988810        -0.051063
1643124173.0000    310895.100000       -84.497280    309971.400000       155.054400    309040.200000        35.427610       403.379200       -78.716830       418.977300       158.814600       400.441800        39.871530        59.986800        -0.007472
1643124174.0000    310708.800000       -90.136310    309808.000000       149.413800    308859.500000        29.784740       403.233100       -84.388600       418.768700       153.116700       400.593000        34.178600        59.981790        -0.050380
1643124175.0000    310866.200000       -96.890340    309961.300000       142.658800    309011.700000        23.030700       402.219300       -91.107600       418.287000       146.327100       399.449600        27.343710        59.981330        -0.000663
1643124176.0000    310855.900000      -104.392100    309959.100000       135.157900    309009.200000        15.528140       402.519600       -98.629610       418.369100       138.844500       399.549500        19.930140        59.978880        -0.107130
1643124177.0000    310939.300000      -112.388600    310046.900000       127.171000    309138.600000         7.535727       402.077100      -106.539200       418.295700       130.936400       399.857900        11.895880        59.978990         0.061734
1643124178.0000    310921.600000      -120.252600    310009.600000       119.297500    309065.800000        -0.330136       402.512900      -114.481100       418.644800       123.082200       400.007600         4.035594        59.978980        -0.078725
1643124179.0000    310692.700000      -128.827600    309838.800000       110.729800    308897.700000        -8.910762       405.006300      -122.968800       420.574300       114.523300       401.760000        -4.471515        59.973950        -0.114091
