Terminal: LT 500  TUCURUI - VILA DO CONDE C2
Tensão base: 500 kV
SOC inicial: 1643124120
SOC final: 1643124179
Taxa: 1 fasores/s
Total de frames faltantes: - 

Tempo_(SOC)           VA_mod_(V)     VA_ang_(graus)     VB_mod_(V)     VB_ang_(graus)     VC_mod_(V)     VC_ang_(graus)     IA_mod_(A)     IA_ang_(graus)     IB_mod_(A)     IB_ang_(graus)     IC_mod_(A)     IC_ang_(graus)     Frequência        Delta_Freq     Faltante
1643124120.0000    301876.300000        -5.495388    326147.500000      -122.003800    295789.800000       119.989800       715.037000        17.407900       676.558200      -101.936200       707.739700       139.293100        59.975130         0.002975
1643124121.0000    301776.800000       -14.488670    326065.200000      -130.991100    295670.700000       110.998000       715.612900         8.448255       677.097200      -110.885200       708.595900       130.336800        59.974610        -0.007324
1643124122.0000    301624.800000       -23.856240    325912.200000      -140.355700    295465.600000       101.634400       715.728800        -0.902002       677.287800      -120.210700       708.686400       121.017200        59.973440         0.011444
1643124123.0000    301637.600000       -33.833400    325893.900000      -150.335200    295469.400000        91.658550       715.347000       -10.817350       677.006200      -130.162700       708.203200       111.056600        59.971670         0.026779
1643124124.0000    301675.300000       -44.325890    325957.500000      -160.820500    295524.800000        81.166150       716.380700       -21.399350       677.707800      -140.739200       709.254100       100.490400        59.971700         0.002518
1643124125.0000    301602.500000       -54.786540    325861.600000      -171.276900    295466.600000        70.707950       715.922000       -31.799410       677.442900      -151.135700       708.673800        90.082180        59.970830         0.026550
1643124126.0000    301618.400000       -65.943530    325873.400000       177.557800    295469.000000        59.551060       716.250100       -43.004700       677.811300      -162.323900       709.280400        78.848320        59.968050        -0.010986
1643124127.0000    301710.800000       -77.523380    325986.300000       165.973900    295591.800000        47.966270       715.811500       -54.642420       677.299700      -173.952400       708.574800        67.264850        59.966800         0.002060
1643124128.0000    301933.300000       -89.180730    326242.300000       154.318000    295815.100000        36.310360       716.184900       -66.317350       677.687000       174.345100       708.797100        55.563470        59.968390        -0.022659
1643124129.0000    301843.800000      -100.132900    326124.300000       143.361700    295711.800000        25.356220       715.701000       -77.291320       677.079700       163.366300       708.144200        44.599230        59.969500        -0.005264
1643124130.0000    301627.300000      -111.573700    325926.000000       131.923800    295512.900000        13.916870       716.328800       -88.746090       677.951900       151.897800       709.175000        33.124550        59.966960        -0.030670
1643124131.0000    301502.000000      -123.043000    325780.800000       120.458700    295359.500000         2.449183       716.181700      -100.134600       677.951100       140.483300       709.064800        21.717360        59.967350        -0.057449
1643124132.0000    301413.100000      -134.900700    325691.200000       108.603800    295266.300000        -9.407645       715.588200      -111.969900       677.410300       128.686200       708.474200         9.898619        59.964820        -0.013046
1643124133.0000    301441.900000      -148.082600    325725.600000        95.423190    295269.100000       -22.591080       716.167400      -125.184100       677.829800       115.465600       708.893000        -3.320940        59.962640         0.012817
1643124134.0000    301647.500000      -161.924500    325927.200000        81.582540    295497.100000       -36.428270       716.582200      -139.118300       678.232200       101.521200       709.116000       -17.274990        59.961480        -0.010757
1643124135.0000    301734.100000      -175.928700    326008.500000        67.574820    295582.900000       -50.431530       715.396700      -153.054100       676.697300        87.579970       707.891700       -31.175130        59.960070         0.011902
1643124136.0000    301772.500000       169.324500    326076.200000        52.833090    295621.700000       -65.178250       716.281100      -167.876400       677.702100        72.770200       709.036200       -45.988010        59.959380        -0.014648
1643124137.0000    301904.900000       155.420900    326194.200000        38.927630    295742.800000       -79.085020       716.356200       178.268500       677.939800        58.892470       708.999400       -59.891290        59.963220         0.006638
1643124138.0000    301786.400000       142.377300    326104.700000        25.880450    295671.300000       -92.127860       715.945300       165.221800       677.418000        45.848670       708.820200       -72.883290        59.963920         0.011902
1643124139.0000    301747.000000       129.466300    326060.200000        12.975710    295605.900000      -105.038900       716.217300       152.347900       678.155900        32.999780       709.246100       -85.795680        59.965380         0.026550
1643124140.0000    301695.200000       117.120100    325996.200000         0.633847    295569.500000      -117.381300       716.726400       139.949300       678.488000        20.611130       709.611400       -98.182300        59.966750         0.022430
1643124141.0000    301665.800000       104.944700    325971.700000       -11.542880    295513.100000      -129.559400       716.434800       127.846500       678.251500         8.511533       709.482500      -110.259300        59.966620        -0.020599
1643124142.0000    301709.800000        93.378590    326008.300000       -23.114030    295570.900000      -141.125100       715.752500       116.255800       677.467800        -3.072120       708.837300      -121.850500        59.968120        -0.005951
1643124143.0000    301839.900000        82.016570    326169.300000       -34.477650    295717.600000      -152.489900       716.556600       104.775500       677.981500       -14.570330       709.327800      -133.341600        59.968720        -0.024719
1643124144.0000    301921.100000        71.437320    326242.100000       -45.056780    295801.900000      -163.068300       716.767600        94.119010       678.069500       -25.225000       709.633300      -143.984900        59.971780         0.004807
1643124145.0000    301827.800000        61.649680    326180.300000       -54.842410    295734.700000      -172.855800       715.926600        84.380050       677.304600       -34.960390       708.593900      -153.737500        59.972680        -0.020370
1643124146.0000    301871.800000        51.922860    326223.000000       -64.571920    295770.900000       177.416300       716.168500        74.631520       677.689700       -44.679430       709.160200      -163.473800        59.973370        -0.004578
1643124147.0000    301918.800000        42.521000    326265.300000       -73.980610    295819.900000       168.009800       715.647000        65.253030       676.973100       -54.079760       708.313000      -172.833500        59.974330         0.014877
1643124148.0000    301893.500000        32.970630    326202.800000       -83.529720    295781.800000       158.465000       715.361000        55.630650       676.477900       -63.678590       708.472400       177.548500        59.973000        -0.012817
1643124149.0000    302042.600000        23.699200    326361.900000       -92.796810    295909.000000       149.194700       715.836700        46.388650       677.262300       -72.956510       708.679300       168.253800        59.976230         0.026321
1643124150.0000    302113.100000        15.188160    326429.600000      -101.306400    295980.800000       140.681200       715.795800        37.946810       677.050500       -81.423950       708.309600       159.827500        59.977030        -0.021286
1643124151.0000    302096.900000         7.451017    326424.500000      -109.048200    295940.500000       132.947500       716.450900        30.144010       677.770100       -89.206480       709.030300       152.026100        59.980740         0.013733
1643124152.0000    301975.500000         0.792391    326299.800000      -115.706400    295839.500000       126.288200       715.659800        23.518030       677.034100       -95.828740       708.351300       145.399400        59.981470        -0.010757
1643124153.0000    302065.600000        -5.790076    326408.600000      -122.290200    295938.300000       119.701800       716.057900        16.888900       677.441000      -102.495500       708.493800       138.763600        59.982720         0.003433
1643124154.0000    302199.400000       -11.865180    326530.000000      -128.367000    296080.500000       113.628300       715.547400        10.760520       677.008500      -108.564400       708.211900       132.651600        59.983590         0.007095
1643124155.0000    302274.600000       -16.919050    326624.200000      -133.424000    296104.600000       108.572700       715.720600         5.738082       677.289900      -113.648600       708.392600       127.593900        59.987500         0.008011
1643124156.0000    302060.100000       -21.177070    326406.300000      -137.674600    295913.800000       104.315100       715.854100         1.471073       677.189300      -117.881600       708.482800       123.346300        59.988750         0.004807
1643124157.0000    302056.000000       -24.862210    326382.900000      -141.352900    295907.700000       100.634000       715.976400        -2.156326       677.417800      -121.508000       708.428900       119.722300        59.990590         0.014191
1643124158.0000    302036.800000       -28.469420    326374.800000      -144.963900    295889.500000        97.028320       716.230100        -5.800261       677.778600      -125.120900       709.049100       116.099400        59.990420        -0.003891
1643124159.0000    302236.000000       -31.161380    326549.100000      -147.660600    296073.200000        94.332250       716.162200        -8.487947       677.516700      -127.830400       708.949800       113.403800        59.994670        -0.007095
1643124160.0000    302358.000000       -32.626340    326689.300000      -149.127700    296203.900000        92.865510       714.678300        -9.989920       676.269700      -129.351300       707.741200       111.890300        59.996440        -0.018082
1643124161.0000    302501.100000       -33.763370    326861.900000      -150.260000    296354.200000        91.731390       714.564600       -11.179100       675.780300      -130.524000       707.470800       110.698300        59.998250         0.039825
1643124162.0000    302559.600000       -34.186160    326913.200000      -150.680700    296410.700000        91.313510       714.686300       -11.596110       675.982200      -130.918200       707.413900       110.285400        59.999940        -0.009155
1643124163.0000    302521.700000       -34.177300    326853.300000      -150.673300    296344.900000        91.315490       713.886800       -11.520030       675.296300      -130.842200       706.602100       110.374900        60.000480        -0.011215
1643124164.0000    302442.600000       -34.103190    326773.300000      -150.599100    296255.700000        91.391960       713.519600       -11.453690       674.962700      -130.811500       706.395800       110.436200        59.998080        -0.083542
1643124165.0000    302440.300000       -34.528110    326786.000000      -151.026900    296268.400000        90.969470       714.771100       -11.969000       676.262000      -131.318200       707.589200       109.930200        59.998730         0.008011
1643124166.0000    302425.100000       -34.575840    326754.800000      -151.076300    296258.000000        90.918910       714.068000       -12.018400       675.710200      -131.353900       706.796100       109.861400        60.001070         0.068436
1643124167.0000    302380.300000       -35.365060    326708.400000      -151.860900    296272.600000        90.131780       713.430500       -12.751840       674.770100      -132.112600       705.686200       109.130600        59.995250        -0.000687
1643124168.0000    302533.200000       -37.256440    326868.300000      -153.754000    296391.000000        88.238470       713.968000       -14.742590       675.431000      -134.099500       706.537400       107.131800        59.994420        -0.000916
1643124169.0000    302662.800000       -39.110850    327021.300000      -155.610700    296516.000000        86.383060       713.561600       -16.606600       674.930500      -135.959400       706.384500       105.272100        59.995700         0.039368
1643124170.0000    302488.000000       -41.620290    326838.300000      -158.115700    296363.500000        83.874780       713.309600       -19.081140       674.649600      -138.437600       705.909400       102.807300        59.991530        -0.023804
1643124171.0000    302484.300000       -44.751260    326808.800000      -161.246600    296337.800000        80.745920       713.612500       -22.167160       674.895700      -141.517500       706.307400        99.726380        59.990710         0.015793
1643124172.0000    302346.400000       -48.560100    326655.700000      -165.051800    296212.300000        76.940310       713.415200       -25.910100       674.666900      -145.271100       705.845900        95.971510        59.987420        -0.029526
1643124173.0000    302208.500000       -53.402090    326542.900000      -169.890000    296058.600000        72.096570       713.988000       -30.742870       675.619400      -150.068500       706.806000        91.146300        59.985770        -0.011444
1643124174.0000    302193.800000       -58.969910    326486.000000      -175.458500    296014.200000        66.530470       713.824200       -36.262140       675.117400      -155.632200       706.314800        85.610770        59.983070        -0.005264
1643124175.0000    302235.300000       -65.803720    326547.000000       177.701300    296085.300000        59.692630       713.346700       -43.126340       674.928000      -162.463900       706.138700        78.760840        59.979300         0.007782
1643124176.0000    302320.200000       -73.354020    326648.800000       170.149400    296200.700000        52.138940       713.721400       -50.693670       675.238800      -170.043700       706.514300        71.187900        59.979120        -0.009384
1643124177.0000    302366.900000       -81.404330    326681.900000       162.090100    296239.100000        44.084680       713.286300       -58.687050       674.971800      -178.035100       706.106900        63.191570        59.977760         0.013733
1643124178.0000    302388.100000       -89.277050    326714.500000       154.222600    296276.300000        36.215550       713.645000       -66.591340       675.095800       174.087800       706.525600        55.315140        59.978900         0.006866
1643124179.0000    302171.700000       -97.588940    326516.200000       145.908800    296068.600000        27.900070       712.846700       -74.849600       674.416500       165.826400       705.826700        47.042260        59.974470        -0.010986
