Terminal: LT 525  NOVA STA RITA - GRAVATAI C1
Tensão base: 525 kV
SOC inicial: 1643124120
SOC final: 1643124179
Taxa: 1 fasores/s
Total de frames faltantes: - 

Tempo_(SOC)           VA_mod_(V)     VA_ang_(graus)     VB_mod_(V)     VB_ang_(graus)     VC_mod_(V)     VC_ang_(graus)     IA_mod_(A)     IA_ang_(graus)     IB_mod_(A)     IB_ang_(graus)     IC_mod_(A)     IC_ang_(graus)     Frequência        Delta_Freq     Faltante
1643124120.0000    312135.800000      -137.800400    312785.100000       101.824500    310310.000000       -18.113270       494.868300      -128.983000       510.374800       111.402100       504.388500       -11.186930        59.975420        -0.000458
1643124121.0000    312047.700000      -146.939800    312591.500000        92.654920    310032.300000       -27.250030       495.041700      -138.156900       511.606000       102.085500       504.279600       -20.615430        59.973130        -0.115128
1643124122.0000    312119.800000      -156.385500    312846.900000        83.223020    310243.300000       -36.718720       495.042700      -147.614100       511.277300        92.740830       505.185400       -29.952240        59.974210         0.118561
1643124123.0000    312094.000000      -166.286900    312693.300000        73.389780    310485.300000       -46.563660       495.568900      -157.526500       509.895200        82.774160       503.778400       -39.654460        59.970750        -0.012589
1643124124.0000    312236.100000      -176.462500    312853.600000        63.180830    310463.200000       -56.760480       494.910100      -167.654400       509.951000        72.692710       503.953400       -49.872960        59.973110         0.067749
1643124125.0000    312220.200000       172.832100    312893.400000        52.427200    310277.600000       -67.497140       494.676500      -178.333200       510.872700        62.005700       504.556800       -60.661350        59.973440         0.186081
1643124126.0000    312128.200000       161.569900    312732.400000        41.229630    310455.500000       -78.716770       495.348900       170.344100       509.656200        50.644640       503.691700       -71.845150        59.967410         0.025864
1643124127.0000    311969.000000       149.907900    312583.400000        29.560010    310250.200000       -90.382780       495.653000       158.672900       510.441300        39.004020       504.459500       -83.532300        59.967490         0.093613
1643124128.0000    312223.200000       138.797600    312934.400000        18.411690    310389.400000      -101.532900       494.614600       147.667300       510.519200        28.042450       504.188700       -94.617190        59.970060        -0.000916
1643124129.0000    312260.100000       127.187000    312852.800000         6.783244    310253.300000      -113.131100       495.157000       136.079500       511.411900        16.339140       504.296400      -106.311700        59.969040        -0.027695
1643124130.0000    312250.400000       115.929000    312818.300000        -4.426476    310463.900000      -124.358100       494.813400       124.822300       510.181700         5.078749       503.484100      -117.426500        59.968910         0.075760
1643124131.0000    311964.900000       104.263000    312486.900000       -16.141550    309935.400000      -136.037900       495.379300       113.096500       511.701500        -6.732360       503.838600      -129.355200        59.967640         0.047836
1643124132.0000    312014.800000        91.968120    312772.900000       -28.427810    310151.200000      -148.374700       494.641400       100.776600       510.635300       -18.832370       504.772500      -141.489200        59.966760         0.021057
1643124133.0000    312105.900000        79.018110    312791.900000       -41.357020    310298.400000      -161.297600       494.819100        87.912340       510.729800       -31.753830       504.182600      -154.383300        59.961270        -0.134811
1643124134.0000    312079.200000        65.488500    312622.700000       -54.942650    309930.800000      -174.834300       494.626300        74.368230       511.703200       -45.425660       503.811300      -168.123300        59.961720        -0.089722
1643124135.0000    312242.600000        51.230280    312790.300000       -69.151990    310317.200000       170.932900       495.623400        60.106580       511.356900       -59.660510       504.275400       177.766000        59.960210         0.000229
1643124136.0000    312178.300000        36.726180    312849.800000       -83.647960    310349.600000       156.411700       494.904000        45.694320       510.816800       -73.986270       504.266200       163.357900        59.958610        -0.047607
1643124137.0000    312262.600000        22.668520    312850.600000       -97.711670    310369.400000       142.366000       494.980200        31.572040       510.873000       -88.109780       504.430500       149.256900        59.961360        -0.013504
1643124138.0000    312352.800000         9.225534    312914.400000      -111.157600    310464.300000       128.924800       495.233300        18.128400       511.142900      -101.557700       504.212500       135.801000        59.965340         0.042801
1643124139.0000    311993.300000        -3.502542    312698.800000      -123.907900    310075.500000       116.162200       495.060800         5.242478       511.716900      -114.371800       505.143500       122.920300        59.965460         0.043030
1643124140.0000    312034.400000       -16.113510    312730.000000      -136.467400    310343.300000       103.581100       495.519900        -7.401064       510.468100      -127.068500       504.527800       110.400300        59.966770         0.056534
1643124141.0000    312172.100000       -28.126760    312741.500000      -148.502100    310292.500000        91.574880       494.930100       -19.300980       510.518500      -139.025800       503.939800        98.400230        59.968330         0.073929
1643124142.0000    312045.400000       -39.916180    312618.300000      -160.278800    310236.400000        79.797360       495.700000       -31.077260       510.442100      -150.840500       503.822000        86.687310        59.967920         0.074615
1643124143.0000    312039.800000       -51.043190    312696.800000      -171.390900    310346.800000        68.661050       495.766000       -42.325610       510.514700      -162.019000       504.446100        75.472310        59.968930         0.026093
1643124144.0000    312283.600000       -61.523370    312796.000000       178.092000    310346.400000        58.186370       495.106400       -52.641600       511.017200      -172.403800       503.371800        64.983440        59.971450        -0.013962
1643124145.0000    312157.500000       -71.706120    312688.900000       167.882100    310110.800000        47.982230       494.610200       -62.871680       511.693900       177.389000       504.061200        54.657400        59.971800        -0.023575
1643124146.0000    312109.400000       -81.362020    312665.200000       158.274900    310288.300000        38.347170       495.625100       -72.616640       510.926300       167.662600       504.508700        45.137040        59.974700         0.035248
1643124147.0000    312348.700000       -90.868970    312959.200000       148.752000    310474.000000        28.828320       494.220900       -81.960170       509.726500       158.317600       503.054800        35.712540        59.972590        -0.045319
1643124148.0000    312226.500000      -100.246700    312883.300000       139.374300    310373.400000        19.437480       493.591300       -91.367330       509.575600       148.960900       503.377300        26.338040        59.973800        -0.062256
1643124149.0000    312273.700000      -109.286400    312920.100000       130.319000    310345.400000        10.391850       494.075500      -100.381100       510.035900       139.928200       503.580400        17.288140        59.975290        -0.042114
1643124150.0000    312300.600000      -117.871900    312921.800000       121.730600    310344.700000         1.806464       494.861700      -109.052000       510.919000       131.255500       504.109200         8.617786        59.977440        -0.028839
1643124151.0000    311927.700000      -125.463300    312485.900000       114.189700    310165.600000        -5.741939       496.233800      -116.781500       511.131600       123.457000       504.616900         1.009959        59.979800        -0.018311
1643124152.0000    312191.700000      -132.377600    312800.200000       107.260000    310383.100000       -12.676170       495.616400      -123.591100       511.126400       116.701600       504.735500        -5.863300        59.981700         0.029297
1643124153.0000    312357.600000      -138.756700    313038.100000       100.860300    310485.900000       -19.073050       494.400500      -129.814900       510.351100       110.491500       503.969400       -12.148710        59.982890         0.001602
1643124154.0000    312313.200000      -144.573200    312983.800000        95.037990    310410.400000       -24.896020       493.883000      -135.617100       509.867100       104.718600       503.407400       -17.922370        59.985710         0.023804
1643124155.0000    312061.300000      -149.778800    312791.600000        89.829360    310195.600000       -30.112610       494.825500      -141.025700       510.831100        99.346770       505.093100       -23.331310        59.988700        -0.017853
1643124156.0000    311930.700000      -153.872100    312547.700000        85.778420    310181.100000       -34.164910       496.567000      -145.184000       511.214700        95.100320       505.211300       -27.426990        59.988460         0.044403
1643124157.0000    312302.400000      -157.773800    312986.300000        81.839030    310402.400000       -38.094730       494.960800      -148.904800       511.093000        91.439030       504.698000       -31.234900        59.991470         0.017624
1643124158.0000    312319.800000      -161.200300    312966.500000        78.417050    310438.700000       -41.512020       494.822000      -152.270400       510.544900        88.052120       504.152200       -34.560810        59.992660         0.064774
1643124159.0000    312084.500000      -163.625800    312766.900000        76.010990    310296.000000       -43.936600       495.736200      -154.809900       511.284200        85.555440       505.268600       -37.080960        59.994410        -0.009155
1643124160.0000    312241.700000      -165.406600    312847.600000        74.211390    310350.000000       -45.709590       495.964300      -156.541900       511.757400        83.727980       505.200300       -38.873980        59.997280        -0.070267
1643124161.0000    312169.200000      -166.287100    312868.000000        73.338880    310354.200000       -46.605290       495.393700      -157.430400       511.221600        82.917970       504.968100       -39.663220        59.996000        -0.082626
1643124162.0000    312039.800000      -166.942800    312640.400000        72.676090    310142.900000       -47.246290       496.378100      -158.113900       511.877200        82.139660       504.955800       -40.448810        59.997020        -0.073242
1643124163.0000    312047.600000      -167.062100    312588.100000        72.565510    310157.900000       -47.349820       496.742400      -158.220600       511.859500        82.037390       505.087300       -40.474450        60.001280        -0.043945
1643124164.0000    312118.600000      -167.007200    312773.300000        72.614170    310268.500000       -47.319710       495.559200      -158.097200       510.991100        82.178180       504.190400       -40.395710        60.001800        -0.045090
1643124165.0000    312244.600000      -166.944400    312936.900000        72.681250    310418.800000       -47.262100       494.654800      -158.009100       510.676800        82.318120       504.181500       -40.313740        59.999260         0.003433
1643124166.0000    311993.800000      -167.406000    312423.800000        72.174710    309838.900000       -47.701450       495.058900      -158.585400       512.112700        81.587080       503.713900       -41.059610        59.996720        -0.059967
1643124167.0000    311841.900000      -168.352500    312697.600000        71.233500    309930.700000       -48.712860       493.861600      -159.684100       510.825100        80.720040       504.439800       -42.044840        60.001200         0.159988
1643124168.0000    311961.000000      -169.463200    312838.100000        70.127710    310066.300000       -49.826410       494.548400      -160.682800       511.065000        79.710420       505.051700       -43.072730        59.993580         0.009842
1643124169.0000    311776.600000      -171.541000    312396.000000        68.139820    310178.400000       -51.815650       495.933000      -162.891000       509.942800        77.418920       504.193800       -45.027490        59.993440         0.003662
1643124170.0000    311934.300000      -174.005900    312504.300000        65.603590    309968.600000       -54.310230       495.800700      -165.232200       511.828300        74.982970       504.658900       -47.598220        59.992740         0.062714
1643124171.0000    312191.900000      -177.162000    312953.400000        62.437930    310307.500000       -57.500040       493.566000      -168.232600       510.071500        72.117360       503.548100       -50.550300        59.990620        -0.024261
1643124172.0000    312039.800000       178.826700    312532.500000        58.417280    309956.700000       -61.478290       495.142200      -172.358600       511.797900        67.853940       504.050300       -54.779200        59.986420        -0.028381
1643124173.0000    312258.400000       174.165000    312964.300000        53.784820    310423.600000       -66.158300       493.616100      -176.896800       509.227600        63.460800       503.030200       -59.183720        59.986670         0.008926
1643124174.0000    311917.400000       168.214900    312846.900000        47.801520    310041.000000       -72.158670       493.833300       176.875700       510.655600        57.368720       505.106000       -65.427020        59.981090        -0.100708
1643124175.0000    312148.500000       161.594300    312866.400000        41.223670    310338.200000       -78.724250       494.405400       170.438200       510.530800        50.796830       504.391500       -71.836290        59.980060        -0.035934
1643124176.0000    312267.800000       154.152400    312967.400000        33.778950    310454.200000       -86.162820       494.177800       163.054900       509.986300        43.399700       503.849000       -79.260920        59.979270         0.035934
1643124177.0000    312002.300000       146.359000    312640.700000        25.933980    309929.300000       -93.971350       494.464300       155.099500       511.478000        35.365900       504.102800       -87.348960        59.977210        -0.093155
1643124178.0000    312041.600000       138.325100    312653.500000        17.952700    310181.400000      -101.978400       494.831200       147.175300       510.259600        27.416700       503.886500       -95.147310        59.977570         0.080795
1643124179.0000    312238.300000       129.592700    312924.900000         9.217131    310420.900000      -110.725700       493.848500       138.440900       509.610700        18.768250       503.236800      -103.855900        59.974400        -0.065460
