Terminal: LT 525  C.NOVOS - CAXIAS C1
Tensão base: 525 kV
SOC inicial: 1643124120
SOC final: 1643124179
Taxa: 1 fasores/s
Total de frames faltantes: - 

Tempo_(SOC)           VA_mod_(V)     VA_ang_(graus)     VB_mod_(V)     VB_ang_(graus)     VC_mod_(V)     VC_ang_(graus)     IA_mod_(A)     IA_ang_(graus)     IB_mod_(A)     IB_ang_(graus)     IC_mod_(A)     IC_ang_(graus)     Frequência        Delta_Freq     Faltante
1643124120.0000    309940.200000      -128.921000    310892.300000       111.050300    310368.600000        -9.182917       669.144500      -110.340100       673.228600       130.373400       677.619100         9.803542        59.975460         0.010757
1643124121.0000    309900.700000      -138.040200    310842.100000       101.937300    310364.800000       -18.296030       669.451300      -119.563800       675.731000       121.042200       677.739500         0.400854        59.973900        -0.044403
1643124122.0000    309905.300000      -147.485200    310889.600000        92.489700    310379.800000       -27.748830       669.967300      -128.954600       675.647900       111.760100       679.412400        -8.956078        59.973290         0.055618
1643124123.0000    309902.000000      -157.396200    310889.400000        82.606580    310516.000000       -37.647220       669.157500      -138.846400       672.633900       101.860400       677.244000       -18.651130        59.972180         0.021515
1643124124.0000    309990.700000      -167.579300    310935.500000        72.411730    310497.300000       -47.828560       669.517300      -148.968900       673.762300        91.735410       678.080600       -28.869790        59.971860         0.036850
1643124125.0000    309941.500000      -178.296600    310913.500000        61.663530    310341.400000       -58.566500       668.976600      -159.634700       674.250900        81.046120       677.576200       -39.583260        59.971410         0.102081
1643124126.0000    309890.400000       170.460300    310906.400000        50.447110    310440.100000       -69.797710       669.409300      -170.931800       672.532800        69.769710       677.283700       -50.714180        59.967620        -0.019455
1643124127.0000    309828.100000       158.809900    310782.100000        38.807520    310384.800000       -81.430260       669.767200       177.321200       673.979400        58.020030       678.270900       -62.573930        59.967680         0.036850
1643124128.0000    309938.600000       147.673700    310938.500000        27.647610    310420.500000       -92.589140       669.360000       166.329300       674.562600        47.057970       678.402400       -73.610260        59.968620        -0.001831
1643124129.0000    309942.000000       136.082600    310908.100000        16.045700    310361.500000      -104.181900       670.485100       154.706800       675.799900        35.328910       678.535700       -85.262370        59.968130         0.000000
1643124130.0000    310013.700000       124.833200    310970.300000         4.825663    310546.700000      -115.414400       670.469100       143.418500       674.829100        24.056290       678.610500       -96.499820        59.969050         0.050354
1643124131.0000    309795.800000       113.178300    310729.800000        -6.858694    310198.900000      -127.081500       670.568700       131.672600       675.353500        12.231060       677.910200      -108.313000        59.967240         0.045319
1643124132.0000    309821.100000       100.871100    310832.800000       -19.168740    310229.400000      -139.404100       669.993000       119.397500       675.175700         0.142997       679.349700      -120.510000        59.965380        -0.010300
1643124133.0000    309810.300000        87.927960    310863.300000       -32.094000    310334.800000      -152.343300       670.669100       106.526900       675.102200       -12.834620       678.904400      -133.403100        59.961860        -0.106888
1643124134.0000    309823.300000        74.391320    310750.900000       -45.656100    310162.800000      -165.871000       670.197000        92.956480       676.209100       -26.470160       678.249900      -147.100200        59.961590        -0.017166
1643124135.0000    309953.300000        60.134660    310890.800000       -59.890030    310384.900000       179.880400       670.933400        78.714580       675.597400       -40.650500       678.685200      -161.216500        59.959660        -0.023575
1643124136.0000    309916.300000        45.635860    310905.000000       -74.385030    310419.600000       165.375300       670.975800        64.212460       676.176700       -55.084260       679.608000      -175.720300        59.959010        -0.028610
1643124137.0000    309945.300000        31.575350    310866.700000       -88.445340    310415.500000       151.327300       671.039800        50.186820       675.869600       -69.125960       679.269500       170.250000        59.962310         0.033188
1643124138.0000    310028.100000        18.132020    310979.100000      -101.879700    310551.300000       137.882200       671.044300        36.756610       676.266800       -82.611430       679.406700       156.759100        59.964360        -0.011215
1643124139.0000    309824.900000         5.398514    310818.900000      -114.639200    310237.500000       125.130800       670.105200        23.913650       675.715500       -95.405490       678.985600       143.925000        59.965090         0.032730
1643124140.0000    309888.900000        -7.200304    310900.900000      -127.207500    310454.400000       112.542300       670.719900        11.262770       674.867600      -107.998800       679.252800       131.410300        59.966080         0.046692
1643124141.0000    309900.400000       -19.232200    310807.700000      -139.256700    310353.500000       100.515000       670.063000        -0.588388       674.262800      -119.913100       677.915900       119.476800        59.967670         0.034332
1643124142.0000    309845.700000       -31.000470    310805.400000      -151.027400    310317.800000        88.735730       670.708800       -12.483500       674.085100      -131.839400       677.819500       107.682700        59.967400         0.011902
1643124143.0000    309905.700000       -42.139060    310899.700000      -162.144800    310451.500000        77.602020       670.056400       -23.625060       674.085400      -142.934600       678.171700        96.523450        59.969240         0.012131
1643124144.0000    310003.800000       -52.623140    310929.700000      -172.646300    310478.300000        67.125820       670.122300       -34.003680       675.064100      -153.420600       677.912500        86.013250        59.971410        -0.012131
1643124145.0000    309898.800000       -62.805470    310856.800000       177.173200    310379.900000        56.942250       669.987000       -44.201680       676.366100      -163.643500       678.325300        75.704610        59.972000        -0.021744
1643124146.0000    309875.100000       -72.453520    310811.100000       167.538300    310407.100000        47.298340       670.241800       -53.874410       674.467000      -173.223500       678.407300        66.210100        59.974730         0.057678
1643124147.0000    310006.100000       -81.990210    310968.700000       157.986600    310470.600000        37.752960       669.486500       -63.244820       673.919900       177.413300       677.207900        56.795690        59.973270        -0.024719
1643124148.0000    309922.500000       -91.360370    310903.800000       148.610200    310397.500000        28.377750       669.238900       -72.708920       674.133000       168.034700       678.083900        47.390680        59.973560        -0.073242
1643124149.0000    309958.100000      -100.412800    310902.100000       139.553300    310354.900000        19.325930       669.099500       -81.692880       674.394500       158.976800       677.501300        38.339980        59.975690        -0.001831
1643124150.0000    310006.400000      -108.983200    310935.800000       130.980600    310401.000000        10.758480       669.750200       -90.325030       675.411300       150.329600       678.415800        29.699480        59.977250        -0.004120
1643124151.0000    309837.000000      -116.527100    310800.300000       123.463900    310370.700000         3.224747       671.459800       -98.145080       675.072000       142.529100       678.983300        21.998290        59.979640        -0.005722
1643124152.0000    309974.700000      -123.459400    310932.600000       116.526400    310486.000000        -3.715917       671.236700      -104.923100       675.581200       135.730900       679.071000        15.160790        59.981440        -0.008469
1643124153.0000    309997.100000      -129.873400    310998.800000       110.101000    310481.200000       -10.138970       669.883600      -111.138500       675.029500       129.504400       678.158500         8.886042        59.983570         0.016022
1643124154.0000    309940.700000      -135.700500    310910.100000       104.264000    310354.500000       -15.967810       669.322300      -116.955900       674.138800       123.762300       677.885300         3.125240        59.985180         0.006866
1643124155.0000    309877.900000      -140.859300    310900.900000        99.113540    310352.600000       -21.126930       671.250600      -122.393200       676.522900       118.323500       680.370500        -2.363754        59.988060         0.012817
1643124156.0000    309830.500000      -144.933400    310850.600000        95.058240    310377.400000       -25.191480       671.409100      -126.557400       675.466000       114.117900       679.461600        -6.430571        59.988430         0.005035
1643124157.0000    309983.900000      -148.882300    310974.700000        91.093650    310468.400000       -29.147100       670.422100      -130.226000       675.520200       110.459200       678.805700       -10.206800        59.990980         0.043716
1643124158.0000    309950.300000      -152.318700    310923.600000        87.662820    310434.800000       -32.579250       669.714800      -133.587600       674.670200       107.056400       678.055200       -13.561240        59.992310         0.033188
1643124159.0000    309814.200000      -154.723800    310805.100000        85.266240    310361.600000       -34.982490       669.990300      -136.091000       674.974800       104.605600       678.814200       -16.031630        59.993840        -0.010986
1643124160.0000    309932.200000      -156.506100    310909.100000        83.467540    310402.900000       -36.766210       670.252200      -137.848100       675.090600       102.780000       678.413300       -17.788760        59.997380         0.000000
1643124161.0000    309879.500000      -157.398800    310875.800000        82.579140    310385.100000       -37.664030       669.358200      -138.723600       674.431800       101.974700       678.213400       -18.669720        59.997410        -0.045547
1643124162.0000    309773.000000      -158.015700    310767.700000        81.958080    310246.900000       -38.279200       671.369700      -139.463500       675.504900       101.177300       678.856800       -19.387280        59.997370        -0.077820
1643124163.0000    309773.700000      -158.128800    310686.800000        81.843700    310205.800000       -38.379650       671.503400      -139.566600       675.655300       101.085000       679.472000       -19.460760        60.000210        -0.005951
1643124164.0000    309811.500000      -158.087700    310839.500000        81.878000    310264.000000       -38.361840       671.239400      -139.460400       675.499900       101.171800       678.851600       -19.374400        60.000810        -0.009613
1643124165.0000    309850.300000      -158.060000    310912.400000        81.920430    310390.000000       -38.328700       669.463400      -139.290900       674.454900       101.339600       677.782800       -19.231290        59.998990        -0.019455
1643124166.0000    309755.000000      -158.510900    310627.500000        81.468440    310172.200000       -38.753040       669.384600      -139.905800       675.677600       100.625500       676.807400       -19.989240        59.997850         0.004578
1643124167.0000    309689.700000      -159.479400    310789.000000        80.483010    310166.300000       -39.763770       667.726100      -140.868600       674.011900        99.849320       677.220000       -20.910980        59.999160         0.074158
1643124168.0000    309721.300000      -160.575700    310861.400000        79.383750    310206.200000       -40.867680       668.688800      -141.945300       674.738300        98.744960       678.092000       -21.950950        59.994330        -0.027008
1643124169.0000    309636.200000      -162.611600    310658.000000        77.392640    310263.300000       -42.865740       670.338000      -144.138900       673.561800        96.583180       678.370500       -23.941370        59.994090         0.022888
1643124170.0000    309732.600000      -165.093300    310695.800000        74.883030    310206.100000       -45.345800       670.204500      -146.547700       675.142800        94.070920       678.412500       -26.546820        59.992210         0.043259
1643124171.0000    309819.000000      -168.310400    310846.800000        71.654900    310285.800000       -48.584830       667.959100      -149.477400       673.367900        91.216840       676.739700       -29.457530        59.990670         0.010529
1643124172.0000    309739.000000      -172.279200    310657.200000        67.685310    310153.600000       -52.535130       669.445500      -153.661400       674.972400        86.913700       677.037800       -33.674410        59.987800         0.008926
1643124173.0000    309839.800000      -176.997100    310845.100000        62.979730    310318.100000       -57.262680       667.215900      -158.097400       672.267400        82.595600       675.864800       -38.029120        59.986570         0.013962
1643124174.0000    309710.800000       177.054900    310750.500000        57.012030    310135.100000       -63.223770       666.358200      -164.254600       673.286100        76.530730       676.822100       -44.255160        59.981860        -0.039139
1643124175.0000    309787.200000       170.447900    310781.200000        50.430300    310324.200000       -69.813290       667.706800      -170.747400       672.698200        69.948540       676.575100       -50.706620        59.980100        -0.027695
1643124176.0000    309820.200000       162.986500    310801.000000        42.974040    310344.000000       -77.271990       667.166900      -178.108200       672.331000        62.578410       676.162200       -58.064030        59.978130         0.005951
1643124177.0000    309775.600000       155.216000    310709.900000        35.177850    310170.600000       -85.045410       667.154500       173.897300       673.716100        54.512260       675.747400       -66.160970        59.977900        -0.046234
1643124178.0000    309754.000000       147.207200    310700.800000        27.181950    310206.900000       -93.051770       668.888100       165.903800       673.061500        46.545000       676.671400       -74.005970        59.977400         0.054703
1643124179.0000    309815.300000       138.429900    310804.900000        18.408520    310294.300000      -101.833900       667.404800       157.311200       672.407200        37.989730       675.758200       -82.624090        59.975090        -0.005264
