Terminal: LT 500  POCOES III - IBICOARA CL5
Tensão base: 500 kV
SOC inicial: 1643124120
SOC final: 1643124179
Taxa: 1 fasores/s
Total de frames faltantes: - 

Tempo_(SOC)           VA_mod_(V)     VA_ang_(graus)     VB_mod_(V)     VB_ang_(graus)     VC_mod_(V)     VC_ang_(graus)     IA_mod_(A)     IA_ang_(graus)     IB_mod_(A)     IB_ang_(graus)     IC_mod_(A)     IC_ang_(graus)     Frequência        Delta_Freq     Faltante
1643124120.0000    304916.700000        73.721260    305265.000000      -166.759200    304774.100000       -46.139350       547.285000      -114.063700       550.225900         5.508322       553.301500       126.060300        59.974960        -0.016937
1643124121.0000    304894.900000        64.717540    305230.900000      -175.757800    304712.800000       -55.144250       546.412900      -123.099600       550.369800        -3.592105       552.128200       117.012400        59.974000        -0.029297
1643124122.0000    304808.500000        55.250700    305170.600000       174.775900    304652.200000       -64.606820       546.819000      -132.555900       550.019100       -12.940200       554.099300       107.536500        59.973210         0.022202
1643124123.0000    304659.600000        45.251880    305024.000000       164.775200    304495.700000       -74.603130       548.702800      -142.741400       550.381800       -23.156780       555.683500        97.350140        59.971760         0.001144
1643124124.0000    304743.400000        34.918630    305108.500000       154.444200    304571.900000       -84.935940       548.717700      -152.991500       551.559900       -33.265930       554.494900        86.975950        59.971330        -0.009842
1643124125.0000    304692.700000        24.271080    305024.600000       143.801100    304486.100000       -95.585240       548.494700      -163.583100       551.585900       -44.014670       554.095200        76.449840        59.970030        -0.010300
1643124126.0000    304735.600000        13.143750    305106.800000       132.665000    304578.600000      -106.717400       547.457500      -174.777100       550.838400       -55.130970       552.975600        65.365120        59.968640        -0.000916
1643124127.0000    304714.400000         1.571148    305074.800000       121.095600    304547.800000      -118.288300       549.280800       173.674700       551.710300       -66.704420       553.904500        53.734790        59.966950        -0.021744
1643124128.0000    304898.700000        -9.823362    305245.000000       109.697500    304717.400000      -129.686700       547.033800       162.268700       549.484000       -77.997770       552.617400        42.385470        59.970190         0.050125
1643124129.0000    304711.500000       -21.009800    305094.000000        98.507190    304573.300000      -140.870900       548.191200       151.188700       551.228000       -89.240450       554.738100        31.238850        59.968430        -0.022888
1643124130.0000    304795.200000       -32.500270    305152.300000        87.022710    304610.500000      -152.359400       548.372500       139.642900       550.950700      -100.707400       554.641100        19.785690        59.967720         0.029755
1643124131.0000    304758.700000       -43.993790    305105.000000        75.528550    304565.700000      -163.852900       547.786200       128.249800       549.837500      -112.134400       553.647900         8.236567        59.965850        -0.064087
1643124132.0000    304677.700000       -56.066160    305008.700000        63.456010    304493.900000      -175.926000       547.817600       116.051800       550.730300      -124.399500       554.128600        -3.936243        59.965900         0.021515
1643124133.0000    304713.300000       -69.196380    305088.100000        50.322770    304562.100000       170.940100       548.910900       103.024700       551.394000      -137.364500       553.762500       -16.950350        59.962670        -0.008926
1643124134.0000    304741.500000       -82.821750    305121.500000        36.697610    304599.400000       157.317800       548.404800        89.420470       550.591800      -150.971300       553.267500       -30.502500        59.962540         0.012817
1643124135.0000    304656.700000       -96.986110    305018.500000        22.531090    304523.200000       143.153100       547.831400        75.161320       551.630400      -165.122700       554.711100       -44.757610        59.959840        -0.008240
1643124136.0000    304821.000000      -111.578500    305181.500000         7.940116    304670.900000       128.562800       547.765700        60.751750       550.825900      -179.676000       553.268800       -59.305980        59.959620        -0.024261
1643124137.0000    304734.600000      -125.411500    305102.700000        -5.887851    304583.500000       114.730300       547.322800        46.664280       550.716900       166.344700       552.427100       -73.207680        59.962230         0.013733
1643124138.0000    304665.100000      -138.692100    305036.700000       -19.172270    304510.300000       101.451400       549.085000        33.402740       552.845200       153.045400       555.057600       -86.549920        59.963780         0.034103
1643124139.0000    304772.800000      -151.583100    305122.200000       -32.056890    304571.100000        88.561140       548.221300        20.521710       549.917300       140.185300       553.969800       -99.418950        59.964990         0.075302
1643124140.0000    304545.200000      -164.024000    304890.000000       -44.501540    304364.900000        76.117400       549.639800         8.048965       552.183800       127.628000       555.898700      -111.933900        59.965140         0.009155
1643124141.0000    304611.300000      -176.134400    304983.800000       -56.609780    304443.700000        64.010860       549.140400        -4.045720       552.395100       115.557700       554.590100      -124.054700        59.967640         0.050812
1643124142.0000    304559.500000       172.212500    304928.200000       -68.256140    304358.300000        52.357570       550.343300       -15.681780       552.751400       103.849600       555.974100      -135.723700        59.967600        -0.010071
1643124143.0000    304607.900000       161.016300    304957.600000       -79.461360    304416.500000        41.157760       549.116300       -26.965560       551.635800        92.588970       555.258200      -146.972000        59.970020        -0.016708
1643124144.0000    304632.200000       150.432700    304959.200000       -90.038070    304402.900000        30.570720       550.047900       -37.476060       553.384600        82.144870       556.471300      -157.433600        59.971870         0.044174
1643124145.0000    304568.300000       140.488600    304893.300000       -99.990380    304373.200000        20.625220       550.905500       -47.369100       553.131700        72.080950       556.384000      -167.284000        59.972230        -0.078278
1643124146.0000    304536.200000       130.816800    304881.800000      -109.654200    304327.400000        10.955730       550.702200       -57.136090       553.558200        62.467960       556.864600      -177.093600        59.973690         0.028381
1643124147.0000    304507.800000       121.337100    304879.800000      -119.137600    304329.200000         1.482828       549.817900       -66.526080       554.070100        52.916860       556.101900       173.386200        59.974020         0.005493
1643124148.0000    304560.200000       111.814100    304944.300000      -128.664600    304396.400000        -8.039733       550.529300       -76.109250       553.393800        43.392270       555.873500       163.938900        59.974530         0.048523
1643124149.0000    304631.400000       102.749600    305023.200000      -137.729200    304473.100000       -17.105210       549.184500       -85.198330       552.033900        34.393630       554.206900       154.905200        59.976150         0.025406
1643124150.0000    304758.000000        94.184750    305139.900000      -146.294600    304608.300000       -25.671870       549.161800       -93.742550       550.512800        25.906620       554.503400       146.340500        59.977540         0.002518
1643124151.0000    304759.700000        86.534810    305180.300000      -153.943000    304600.900000       -33.317980       548.724900      -101.301400       552.105300        18.197170       555.392400       138.741700        59.980550         0.046005
1643124152.0000    304614.300000        79.675370    305045.200000      -160.805500    304491.300000       -40.178410       550.132900      -108.144300       553.113900        11.368140       555.913900       131.768700        59.982080         0.005264
1643124153.0000    304678.300000        73.198570    305069.500000      -167.281600    304536.400000       -46.655470       550.169300      -114.691100       553.121800         4.954562       555.850000       125.374300        59.982880         0.047379
1643124154.0000    304870.600000        67.163190    305287.300000      -173.318700    304736.000000       -52.688120       548.449000      -120.633400       550.507300        -0.961983       552.805400       119.420300        59.985320         0.029984
1643124155.0000    304849.700000        62.164730    305258.100000      -178.318300    304722.200000       -57.691120       547.781600      -125.656200       550.541300        -6.175514       552.857500       114.305700        59.986990         0.013275
1643124156.0000    304770.900000        57.845960    305205.100000       177.367900    304634.200000       -62.001460       549.133000      -130.026200       550.778400       -10.300650       554.855700       110.047200        59.989280        -0.004578
1643124157.0000    304709.800000        54.118000    305104.900000       173.636900    304548.200000       -65.736240       549.227500      -133.672500       552.507800       -14.146650       555.624700       106.295200        59.990060        -0.001602
1643124158.0000    304985.800000        50.600310    305412.100000       170.123400    304852.600000       -69.246990       546.534400      -137.110700       549.324300       -17.475080       551.254000       102.962200        59.991650         0.000916
1643124159.0000    304986.900000        48.075160    305405.300000       167.600900    304825.800000       -71.771480       548.250200      -139.655000       549.709000       -20.031300       552.059000       100.389000        59.994200         0.016251
1643124160.0000    304852.900000        46.470730    305284.300000       165.986200    304751.000000       -73.382120       548.336300      -141.267300       551.253400       -21.714750       554.915300        98.679880        59.997020        -0.009613
1643124161.0000    305067.900000        45.395620    305500.100000       164.917200    304938.800000       -74.454120       547.053400      -142.344500       549.050700       -22.691650       552.724500        97.760400        59.998210         0.013275
1643124162.0000    304973.700000        45.023760    305382.200000       164.535700    304863.300000       -74.834770       546.982300      -142.754800       549.703400       -23.124560       552.926800        97.224910        59.999980         0.004349
1643124163.0000    305006.400000        45.019670    305404.200000       164.538400    304867.200000       -74.833810       546.248800      -142.680200       549.495800       -23.066800       551.635700        97.369090        60.000640        -0.009384
1643124164.0000    304987.300000        44.996590    305393.500000       164.515000    304858.700000       -74.857600       546.988500      -142.753900       549.728800       -23.266580       552.344500        97.275380        59.999970         0.016937
1643124165.0000    305100.000000        44.789260    305510.000000       164.307200    304976.800000       -75.062020       545.228900      -142.981100       548.866700       -23.405050       550.883200        97.142820        59.999630         0.073013
1643124166.0000    304960.700000        44.633300    305332.500000       164.150100    304809.700000       -75.224800       547.178600      -143.131200       548.724800       -23.569390       552.373400        96.955960        59.999460         0.038681
1643124167.0000    305002.700000        43.779070    305348.700000       163.294800    304857.300000       -76.083510       545.112000      -144.009000       548.013700       -24.385290       551.372900        96.122310        59.997300         0.019455
1643124168.0000    305143.500000        42.167020    305501.300000       161.687100    304979.900000       -77.696660       545.349700      -145.582900       546.919500       -25.964310       548.788300        94.531460        59.995520         0.016708
1643124169.0000    305061.100000        40.360280    305407.300000       159.881400    304898.200000       -79.499920       546.306900      -147.233300       548.254300       -27.709490       550.541600        92.734970        59.993880         0.018311
1643124170.0000    305071.000000        37.723570    305442.100000       157.239900    304936.300000       -82.141310       545.607300      -149.944100       548.255200       -30.321060       549.939000        90.132160        59.991470        -0.044861
1643124171.0000    305089.400000        34.655640    305432.300000       154.173400    304916.000000       -85.207210       544.243800      -153.051200       547.552100       -33.429360       549.677100        86.886980        59.990580         0.005035
1643124172.0000    305009.300000        30.802160    305354.300000       150.318000    304861.900000       -89.063830       544.645300      -157.024400       547.315700       -37.412900       549.655100        83.091710        59.988610         0.006409
1643124173.0000    305085.200000        25.977890    305454.300000       145.495200    304932.300000       -93.884970       543.955900      -161.768300       547.130000       -42.162580       549.881800        78.238570        59.985780         0.058594
1643124174.0000    304978.300000        20.345770    305378.800000       139.870200    304818.100000       -99.503970       544.554400      -167.389200       547.219600       -47.772640       548.889700        72.637150        59.982770        -0.071640
1643124175.0000    305075.800000        13.591610    305447.400000       133.112500    304922.000000      -106.268700       544.574600      -174.165900       546.846900       -54.511620       549.094200        65.966180        59.981320         0.065689
1643124176.0000    305185.500000         6.129213    305539.600000       125.651200    305038.200000      -113.729800       542.088300       178.464200       544.424100       -62.021300       546.743700        58.522980        59.979530         0.029755
1643124177.0000    305267.800000        -1.863959    305633.100000       117.662900    305091.900000      -121.720300       540.243700       170.463700       542.749600       -69.913120       545.979400        50.501270        59.978120         0.034332
1643124178.0000    305195.900000        -9.740050    305606.400000       109.780800    305059.800000      -129.593500       541.258000       162.747400       544.453600       -77.661300       546.665000        42.624020        59.978910         0.053787
1643124179.0000    305065.200000       -18.341820    305459.700000       101.185900    304888.600000      -138.193400       542.134600       153.965800       545.461700       -86.407300       548.379400        33.986620        59.974660         0.016022
