Terminal: LT 525  SALTO CAXIAS - CASCAVEL OEST C1
Tensão base: 525 kV
SOC inicial: 1643124120
SOC final: 1643124179
Taxa: 1 fasores/s
Total de frames faltantes: - 

Tempo_(SOC)           VA_mod_(V)     VA_ang_(graus)     VB_mod_(V)     VB_ang_(graus)     VC_mod_(V)     VC_ang_(graus)     IA_mod_(A)     IA_ang_(graus)     IB_mod_(A)     IB_ang_(graus)     IC_mod_(A)     IC_ang_(graus)     Frequência        Delta_Freq     Faltante
1643124120.0000    314046.300000      -103.899400    312980.500000       135.514400    309710.400000        15.865180        19.815480       132.024700        46.258980       -39.314110        35.070410       150.353500        59.974800        -0.011444
1643124121.0000    314054.800000      -112.992000    313024.800000       126.429500    309775.400000         6.769289        22.691600       125.489400        47.743070       -45.616560        33.942180       144.622200        59.975050         0.000458
1643124122.0000    313972.700000      -122.413100    312896.500000       117.000700    309640.900000        -2.641608        21.846420       116.367800        46.863280       -54.521620        33.662870       135.669100        59.972180        -0.007782
1643124123.0000    314059.000000      -132.378900    313065.100000       107.045000    309790.300000       -12.617500        22.849270       106.590400        46.890490       -63.742770        33.054780       126.422500        59.971950        -0.001831
1643124124.0000    314153.500000      -142.580500    313101.100000        96.844060    309858.900000       -22.812190        23.645350        98.834890        47.271000       -72.859030        32.378260       117.205800        59.971260         0.020370
1643124125.0000    314144.600000      -153.285400    313076.500000        86.130550    309785.100000       -33.518180        24.093920        89.026210        47.199500       -83.348380        31.953580       106.849100        59.970140         0.044632
1643124126.0000    314072.800000      -164.515900    313057.600000        74.901100    309760.900000       -44.758650        23.480960        78.624580        46.163090       -94.673650        31.392930        94.367160        59.968320        -0.012131
1643124127.0000    314174.000000      -176.126600    313102.100000        63.297530    309850.200000       -56.354420        24.502080        61.980610        48.068020      -106.504100        33.058140        85.714230        59.966650        -0.048752
1643124128.0000    314249.500000       172.699700    313162.300000        52.121510    309917.000000       -67.528220        23.513940        58.220570        46.137740      -116.589000        31.258100        71.962500        59.968510        -0.033646
1643124129.0000    314209.600000       161.144200    313164.200000        40.560100    309867.200000       -79.091200        27.200470        40.245850        50.319670      -127.253900        32.930910        66.527790        59.968350         0.035248
1643124130.0000    314323.200000       149.832600    313294.900000        29.258770    310059.300000       -90.399490        26.017680        31.690280        48.390610      -138.522200        31.498190        53.654000        59.969910         0.036392
1643124131.0000    314124.200000       138.239100    313076.800000        17.656950    309800.600000      -101.995600        26.742580        23.277860        47.279300      -148.755900        29.924040        41.967460        59.965950        -0.048752
1643124132.0000    314128.400000       125.933000    313097.000000         5.345428    309792.500000      -114.301300        27.539110         9.712132        48.850540      -160.276100        30.828450        32.207100        59.964680        -0.003433
1643124133.0000    314224.000000       112.987400    313199.100000        -7.594628    309922.800000      -127.249000        28.767420        -3.089052        49.845800      -171.917400        31.061460        22.564780        59.963500        -0.030212
1643124134.0000    314214.200000        99.435550    313164.800000       -21.152900    309859.400000      -140.796400        30.979140       -15.287260        50.253280       175.525900        29.072330        11.041640        59.960010        -0.012817
1643124135.0000    314298.200000        85.161310    313233.100000       -35.418410    309970.100000      -155.068900        28.938270       -32.382880        49.855750       159.923100        30.753840        -5.964422        59.960550         0.003204
1643124136.0000    314297.100000        70.691630    313255.600000       -49.888320    309988.100000      -169.539300        27.991410       -46.759490        49.421530       144.903700        31.195670       -21.363570        59.960230        -0.003433
1643124137.0000    314378.000000        56.608930    313325.900000       -63.964710    310087.800000       176.382700        29.741980       -62.627200        51.393350       130.755700        32.318040       -34.010330        59.960940        -0.025406
1643124138.0000    314446.100000        43.173420    313409.900000       -77.396400    310162.400000       162.947400        28.892560       -76.069780        50.530750       116.826800        31.934510       -48.331920        59.964680         0.018311
1643124139.0000    314387.900000        30.452550    313357.600000       -90.130810    310056.100000       150.221600        28.936470       -85.830770        49.915450       104.773600        30.915680       -61.235530        59.965760         0.050583
1643124140.0000    314411.100000        17.853920    313388.000000      -102.721800    310113.900000       137.622600        29.164240       -96.135920        49.098090        93.952280        29.447360       -73.028280        59.966580         0.043030
1643124141.0000    314432.100000         5.821590    313359.700000      -114.760400    310097.600000       125.593600        30.329900      -112.514700        51.032920        80.744610        31.027900       -82.703620        59.966710        -0.008240
1643124142.0000    314299.000000        -5.936149    313245.400000      -126.513800    309986.900000       113.835100        27.925400      -123.642400        49.472530        67.587100        31.077080       -99.327080        59.967790         0.002060
1643124143.0000    314473.400000       -17.105270    313436.800000      -137.677500    310193.800000       102.666500        29.327780      -134.788200        50.095960        58.271380        30.807160      -107.055800        59.970060        -0.009155
1643124144.0000    314460.200000       -27.593440    313373.300000      -148.172200    310116.300000        92.183010        28.562390      -143.498200        49.135710        47.148720        30.359160      -119.090100        59.971120        -0.001373
1643124145.0000    314359.600000       -37.741490    313283.300000      -158.316500    310047.800000        82.035350        28.545740      -155.298000        50.110070        36.292220        31.121790      -129.027200        59.971720        -0.039139
1643124146.0000    314405.700000       -47.383300    313300.500000      -167.954400    310083.000000        72.399280        29.852680      -162.931400        50.067410        29.233760        30.334340      -136.904500        59.973470         0.016022
1643124147.0000    314353.400000       -56.945720    313295.600000      -177.527000    310043.300000        62.826950        29.422210      -176.578800        50.909480        17.464370        32.102600      -147.263400        59.972970         0.000458
1643124148.0000    314359.800000       -66.327860    313251.000000       173.090100    309988.000000        53.447940        26.788480       179.626200        47.843690         8.280746        29.833320      -160.260800        59.974670         0.041428
1643124149.0000    314346.600000       -75.373630    313278.100000       164.043800    310009.800000        44.398850        27.851450       166.841500        49.364030        -1.615290        31.263350      -168.429000        59.974880         0.012131
1643124150.0000    314471.200000       -83.910340    313351.800000       155.510200    310103.000000        35.869230        27.846660       157.107000        49.976000       -10.937760        32.271100      -176.443900        59.977770         0.021744
1643124151.0000    314453.800000       -91.423390    313382.200000       148.006000    310141.100000        28.351710        27.772730       149.579000        49.820550       -18.519270        31.780760       174.758100        59.980370        -0.001144
1643124152.0000    314576.800000       -98.397930    313515.100000       141.025800    310252.500000        21.372790        29.880270       143.883300        50.368080       -22.818900        30.966140       172.309300        59.981350        -0.013046
1643124153.0000    314393.700000      -104.815200    313369.800000       134.608100    310094.600000        14.949880        28.946510       137.919300        49.873570       -30.339870        30.831070       163.641700        59.982940         0.015793
1643124154.0000    314289.000000      -110.627300    313227.000000       128.784500    309949.200000         9.141207        24.097980       132.615500        46.725780       -40.211240        31.312900       149.589300        59.984180        -0.027466
1643124155.0000    314392.300000      -115.742900    313320.200000       123.674100    310053.800000         4.026375        24.901380       127.161500        47.381190       -44.105100        31.426000       146.844100        59.986920        -0.000458
1643124156.0000    314425.600000      -119.862500    313380.500000       119.565400    310136.300000        -0.091095        24.496750       128.504800        44.670310       -46.758300        28.769320       140.440400        59.988900        -0.018997
1643124157.0000    314469.700000      -123.808200    313404.100000       115.619200    310169.400000        -4.032285        27.556250       125.529800        46.465860       -47.451710        27.832880       141.833000        59.989860         0.024719
1643124158.0000    314431.600000      -127.234900    313371.200000       112.188800    310105.600000        -7.461663        24.537740       119.387400        45.855830       -54.374900        29.408560       134.269900        59.991710        -0.030212
1643124159.0000    314372.500000      -129.627600    313344.000000       109.801300    310096.000000        -9.855952        25.025520       116.263500        46.070720       -57.274430        29.736960       131.902700        59.994100         0.003891
1643124160.0000    314376.200000      -131.402300    313312.900000       108.018300    310056.700000       -11.630940        23.049990       112.420500        45.456130       -61.122270        31.135720       127.002000        59.996540         0.021515
1643124161.0000    314301.100000      -132.296200    313275.800000       107.128000    309993.300000       -12.524590        22.849990       114.975200        44.599800       -61.656540        30.064760       124.883400        59.998250        -0.017395
1643124162.0000    314343.600000      -132.878100    313312.000000       106.545500    310036.000000       -13.106600        25.461570       114.527300        46.019980       -60.120710        29.080260       128.954000        59.999060        -0.016708
1643124163.0000    314225.600000      -132.963200    313149.300000       106.458300    309891.900000       -13.187250        25.088390       112.689700        46.098690       -60.414830        29.870270       127.910200        60.000720         0.013733
1643124164.0000    314282.000000      -132.956100    313236.200000       106.460900    309929.700000       -13.187340        24.479900       113.202100        45.651700       -61.039950        29.793240       127.698800        60.000500         0.000916
1643124165.0000    314258.600000      -132.953500    313224.600000       106.466000    309934.300000       -13.187730        24.755330       113.080700        46.002740       -60.387340        29.929140       128.495400        59.999590         0.003891
1643124166.0000    314143.300000      -133.370100    313045.900000       106.057300    309798.500000       -13.594650        23.823600       113.436500        45.326830       -61.917840        29.958300       126.342100        59.997840        -0.008469
1643124167.0000    314203.600000      -134.382100    313183.600000       105.033400    309853.300000       -14.619950        24.974490       112.503600        45.733780       -61.670800        28.970980       127.269500        59.997250         0.013504
1643124168.0000    314109.900000      -135.487700    313108.200000       103.922900    309768.400000       -15.731310        21.520340       113.842800        43.070960       -66.045460        29.784100       119.279700        59.994960        -0.046921
1643124169.0000    314158.100000      -137.471700    313135.200000       101.958100    309873.600000       -17.703620        25.781480       109.429200        45.852620       -63.961860        28.934950       125.568200        59.993180         0.001373
1643124170.0000    314115.900000      -139.978700    313048.700000        99.441020    309794.900000       -20.207670        24.288960       105.687500        45.492910       -68.869970        30.173790       120.219300        59.991210        -0.032959
1643124171.0000    314224.500000      -143.215600    313200.000000        96.200340    309890.000000       -23.450210        27.110620       106.677900        46.092740       -67.681540        28.076030       121.747900        59.990350         0.012131
1643124172.0000    314131.700000      -147.145600    313070.900000        92.274300    309796.200000       -27.373540        24.863200        98.032760        46.030340       -75.149410        29.825320       113.534500        59.988880         0.040741
1643124173.0000    314244.400000      -151.917800    313206.900000        87.508190    309925.300000       -32.150000        28.182560        97.387290        47.306270       -75.638280        27.936850       115.007300        59.984520        -0.024948
1643124174.0000    314117.600000      -157.842600    313058.600000        81.571560    309776.800000       -38.076850        26.929950        89.233300        47.291670       -82.876370        29.468870       106.560900        59.981940         0.009155
1643124175.0000    314169.800000      -164.449600    313139.600000        74.970360    309847.600000       -44.684240        26.270160        83.326080        46.091000       -90.203860        28.867160        99.585220        59.980970        -0.002518
1643124176.0000    314138.300000      -171.931700    313104.600000        67.494160    309838.600000       -52.160340        25.575980        78.952450        44.706840       -97.318130        27.330930        89.927600        59.978920        -0.003433
1643124177.0000    314189.400000      -179.686700    313127.500000        59.727830    309828.400000       -59.916500        23.581090        64.973190        45.684200      -109.399600        30.719510        79.683350        59.977710         0.008926
1643124178.0000    314197.200000       172.316000    313120.300000        51.737010    309861.400000       -67.910460        25.444280        58.951250        46.626370      -114.730800        29.810220        75.236130        59.977700         0.059738
1643124179.0000    314221.500000       163.518300    313200.200000        42.938220    309911.700000       -76.717300        27.897850        50.691530        47.576460      -121.257400        28.567530        70.000970        59.974500        -0.009155
