Terminal: LT 500  S.DA MESA - GURUPI C1
Tensão base: 500 kV
SOC inicial: 1643124120
SOC final: 1643124179
Taxa: 1 fasores/s
Total de frames faltantes: - 

Tempo_(SOC)           VA_mod_(V)     VA_ang_(graus)     VB_mod_(V)     VB_ang_(graus)     VC_mod_(V)     VC_ang_(graus)     IA_mod_(A)     IA_ang_(graus)     IB_mod_(A)     IB_ang_(graus)     IC_mod_(A)     IC_ang_(graus)     Frequência        Delta_Freq     Faltante
1643124120.0000    311005.500000        77.717530    310942.400000      -162.217600    310358.300000       -42.288760      1231.760000       -89.220890      1253.229000        31.004050      1238.216000       151.483700        59.973930        -0.031488
1643124121.0000    310962.000000        68.686110    310894.300000      -171.241500    310280.300000       -51.317490      1233.791000       -98.129140      1255.145000        21.979040      1238.331000       142.466300        59.972800        -0.093954
1643124122.0000    310950.500000        59.241270    310891.600000       179.321000    310251.800000       -60.756660      1232.390000      -107.538500      1254.709000        12.608750      1239.588000       132.983000        59.972550         0.056563
1643124123.0000    310985.800000        49.226670    310925.500000       169.310400    310257.800000       -70.770320      1235.942000      -117.562800      1255.906000         2.561520      1240.552000       123.082600        59.970810        -0.037311
1643124124.0000    311014.800000        38.911590    310942.600000       158.996500    310270.400000       -81.086070      1232.961000      -127.976300      1252.515000        -7.788039      1238.484000       112.720200        59.971360        -0.005012
1643124125.0000    310936.100000        28.271330    310876.600000       148.364300    310169.500000       -91.720560      1235.472000      -138.579300      1255.695000       -18.344040      1239.676000       102.093700        59.969140         0.057466
1643124126.0000    310933.700000        17.132470    310885.200000       137.207800    310253.800000      -102.866700      1236.625000      -149.818300      1255.628000       -29.523030      1240.726000        90.978730        59.968120        -0.029454
1643124127.0000    310997.500000         5.546933    310907.500000       125.627600    310260.100000      -114.453800      1235.405000      -161.334000      1253.521000       -41.096850      1240.446000        79.415290        59.966330        -0.010403
1643124128.0000    311148.700000        -5.848402    311049.200000       114.234900    310396.400000      -125.851000      1228.493000      -172.839000      1249.450000       -52.594720      1234.272000        67.925010        59.969720         0.148230
1643124129.0000    310958.700000       -17.049090    310872.000000       103.032300    310230.000000      -137.050200      1234.555000       176.066400      1255.750000       -63.736540      1240.087000        56.747810        59.967770        -0.067347
1643124130.0000    311016.300000       -28.511840    310914.500000        91.568310    310279.500000      -148.516500      1235.061000       164.680300      1254.379000       -75.074180      1241.635000        45.303510        59.967330         0.051844
1643124131.0000    310902.600000       -40.023080    310820.300000        80.060230    310161.500000      -160.022800      1234.812000       153.183400      1254.645000       -86.609260      1241.710000        33.919460        59.966320        -0.135185
1643124132.0000    310794.700000       -52.123350    310673.800000        67.958470    310048.500000      -172.130300      1241.661000       141.197500      1261.398000       -98.662550      1247.908000        21.861440        59.964020        -0.161868
1643124133.0000    310870.100000       -65.213570    310784.200000        54.865280    310148.600000       174.783900      1238.769000       128.077600      1257.779000      -111.787200      1243.333000         8.718820        59.962230        -0.100305
1643124134.0000    310946.900000       -78.852560    310842.900000        41.224540    310228.900000       161.141300      1234.813000       114.396700      1255.137000      -125.415300      1240.759000        -5.075271        59.960750        -0.060761
1643124135.0000    310837.100000       -93.032900    310746.300000        27.044520    310122.500000       146.963600      1238.833000       100.246200      1260.054000      -139.580600      1243.178000       -19.161660        59.959370        -0.005334
1643124136.0000    311002.300000      -107.609600    310911.600000        12.475230    310253.100000       132.391600      1234.337000        85.542850      1255.002000      -154.212700      1240.619000       -33.791260        59.959280        -0.063940
1643124137.0000    310909.400000      -121.539600    310811.900000        -1.452835    310145.000000       118.460300      1238.148000        71.658040      1256.692000      -168.140100      1242.643000       -47.693260        59.961260         0.005294
1643124138.0000    310812.400000      -134.799700    310700.000000       -14.713880    310039.400000       105.196400      1242.021000        58.407290      1262.225000       178.605200      1247.844000       -60.956210        59.962270        -0.052706
1643124139.0000    310944.500000      -147.647400    310792.100000       -27.554080    310124.600000        92.345370      1240.237000        45.596080      1258.005000       165.745200      1245.150000       -73.746830        59.964510         0.038073
1643124140.0000    310822.000000      -160.091600    310672.600000       -39.997960    310008.000000        79.902080      1243.957000        33.175030      1260.327000       153.302600      1247.290000       -86.097110        59.964800        -0.062971
1643124141.0000    310856.800000      -172.189300    310683.400000       -52.102630    310052.900000        67.798450      1240.652000        21.078950      1260.286000       141.150300      1245.069000       -98.303840        59.964950         0.001908
1643124142.0000    310824.000000       176.139900    310624.000000       -63.770700    310000.100000        56.124820      1243.725000         9.343441      1262.598000       129.529100      1248.366000      -110.005300        59.966680        -0.072439
1643124143.0000    310932.400000       164.913300    310731.800000       -74.999540    310112.700000        44.895390      1239.447000        -1.901726      1259.733000       118.275600      1247.642000      -121.311900        59.969890         0.063631
1643124144.0000    310965.800000       154.386800    310682.400000       -85.528320    310124.300000        34.357050      1241.178000       -12.457830      1259.074000       107.647600      1246.267000      -131.773500        59.971740        -0.082477
1643124145.0000    310839.800000       144.417400    310592.200000       -95.503930    310038.800000        24.389640      1244.181000       -22.360480      1261.202000        97.809200      1248.878000      -141.661500        59.970420        -0.163132
1643124146.0000    310859.900000       134.736100    310677.600000      -105.193000    310131.200000        14.714690      1243.302000       -32.037520      1261.353000        88.126630      1248.861000      -151.312500        59.970570        -0.184616
1643124147.0000    310794.500000       125.213500    310808.800000      -114.699000    310081.200000         5.232492      1246.199000       -41.499550      1266.408000        78.691980      1250.281000      -160.859000        59.975270         0.071503
1643124148.0000    310847.100000       115.691800    310844.400000      -124.220900    310124.700000        -4.292192      1244.892000       -51.112900      1263.654000        69.223530      1249.724000      -170.302300        59.974820         0.060635
1643124149.0000    310895.000000       106.621600    310913.500000      -133.294800    310197.900000       -13.362530      1240.613000       -60.232070      1260.444000        60.062600      1244.804000      -179.551000        59.975740         0.082005
1643124150.0000    310955.800000        98.069850    310948.100000      -141.843300    310234.800000       -21.915860      1240.786000       -68.774990      1258.883000        51.518100      1245.988000       171.988500        59.976670         0.017419
1643124151.0000    310977.000000        90.454430    311000.400000      -149.469800    310315.300000       -29.533030      1237.904000       -76.339580      1258.653000        43.839100      1242.186000       164.247700        59.980020         0.016724
1643124152.0000    310856.600000        83.612590    310898.600000      -156.309300    310198.800000       -36.371700      1239.986000       -83.194640      1261.138000        37.082630      1245.720000       157.430200        59.981480        -0.042757
1643124153.0000    310922.600000        77.165500    310937.400000      -162.758900    310261.300000       -42.819230      1237.033000       -89.659260      1257.759000        30.516720      1242.338000       151.017400        59.982020        -0.060606
1643124154.0000    311011.400000        71.100330    311009.600000      -168.825800    310364.500000       -48.890800      1238.531000       -95.789890      1257.814000        24.487570      1242.573000       144.910300        59.985210         0.044160
1643124155.0000    311009.300000        66.073560    310993.800000      -173.851800    310335.700000       -53.920200      1238.035000      -100.818700      1257.203000        19.405710      1242.683000       139.907800        59.987120         0.169732
1643124156.0000    310952.300000        61.778890    310960.200000      -178.146300    310296.900000       -58.211150      1238.010000      -105.051100      1257.572000        15.149910      1243.717000       135.688800        59.987710        -0.106049
1643124157.0000    310903.800000        58.027980    310868.600000       178.099100    310248.000000       -61.970570      1239.747000      -108.797000      1258.749000        11.360390      1245.008000       131.901800        59.988140        -0.131142
1643124158.0000    311009.600000        54.522190    310996.100000       174.591000    310374.700000       -65.475880      1234.573000      -112.263400      1257.514000         7.822012      1240.924000       128.303000        59.991180        -0.178884
1643124159.0000    311100.700000        52.006560    311080.500000       172.079500    310437.900000       -67.989520      1232.803000      -114.968500      1253.648000         5.246630      1236.443000       125.743100        59.992530        -0.017164
1643124160.0000    310978.800000        50.388730    310946.500000       170.454300    310343.500000       -69.610080      1237.210000      -116.468300      1257.565000         3.675097      1241.894000       124.194600        59.996160         0.016063
1643124161.0000    311055.800000        49.350520    311036.000000       169.419800    310429.300000       -70.648600      1234.132000      -117.572900      1254.079000         2.563385      1239.128000       123.142300        59.997310        -0.111519
1643124162.0000    310981.300000        48.897250    311001.700000       168.957000    310409.300000       -71.096810      1235.150000      -118.002300      1258.951000         2.216028      1241.255000       122.623000        59.998150        -0.067142
1643124163.0000    310934.900000        48.912220    310959.500000       168.978400    310330.400000       -71.077240      1234.937000      -118.025800      1258.280000         2.201630      1240.935000       122.598000        60.000250        -0.111917
1643124164.0000    310964.300000        48.892410    311018.600000       168.958100    310375.900000       -71.093890      1237.732000      -118.035700      1258.383000         2.247884      1241.848000       122.670300        60.000300        -0.098897
1643124165.0000    311061.500000        48.670300    311153.600000       168.747700    310439.000000       -71.305270      1233.898000      -118.320200      1254.863000         1.966334      1238.957000       122.456000        60.002620         0.476195
1643124166.0000    311012.700000        48.520380    310834.000000       168.608200    310211.000000       -71.494710      1236.239000      -118.416700      1254.919000         1.676641      1241.938000       122.298500        60.003380         0.144033
1643124167.0000    310942.300000        47.626610    310850.400000       167.678600    310339.500000       -72.390980      1239.394000      -119.214300      1258.668000         0.955166      1243.800000       121.478900        59.993770        -0.328758
1643124168.0000    311142.800000        46.055240    310936.700000       166.120300    310422.000000       -73.970530      1229.357000      -120.918800      1251.727000        -0.769883      1236.812000       119.730900        59.994580        -0.145090
1643124169.0000    311037.300000        44.253330    310911.300000       164.313100    310392.300000       -75.765340      1230.269000      -122.692700      1251.325000        -2.611950      1235.544000       118.006400        59.993260        -0.038763
1643124170.0000    311066.600000        41.663390    310895.700000       161.721800    310403.800000       -78.363760      1229.852000      -125.282300      1251.510000        -5.143346      1237.205000       115.377800        59.990760        -0.101233
1643124171.0000    311074.300000        38.534780    310901.300000       158.597900    310387.300000       -81.489890      1233.320000      -128.383200      1253.197000        -8.335666      1238.938000       112.259100        59.991140         0.037480
1643124172.0000    311021.500000        34.681120    310834.300000       154.738800    310348.900000       -85.347410      1234.146000      -132.263200      1253.904000       -12.137400      1239.030000       108.563100        59.988120         0.048509
1643124173.0000    311062.800000        29.855860    310890.100000       149.922100    310356.200000       -90.169040      1233.102000      -137.026900      1252.973000       -16.913390      1237.992000       103.610500        59.985310        -0.069245
1643124174.0000    310944.700000        24.192270    310764.700000       144.259800    310224.800000       -95.829770      1234.757000      -142.669400      1256.438000       -22.439950      1242.951000        97.909050        59.982340        -0.153548
1643124175.0000    311062.700000        17.450540    310895.500000       137.520900    310336.600000      -102.568600      1233.311000      -149.481200      1254.983000       -29.277480      1239.604000        91.137020        59.980590         0.021592
1643124176.0000    311055.300000         9.949819    310901.900000       130.020100    310349.300000      -110.067600      1233.450000      -157.031300      1252.020000       -36.892850      1237.081000        83.732460        59.979480         0.006138
1643124177.0000    311222.500000         1.973870    310973.300000       122.055800    310392.800000      -118.052500      1231.521000      -165.002000      1249.801000       -44.843190      1237.247000        75.730330        59.978710         0.177924
1643124178.0000    311124.000000        -5.891252    310938.500000       114.181400    310379.500000      -125.913000      1231.828000      -172.864300      1249.136000       -52.720140      1236.669000        67.760140        59.978600         0.078329
1643124179.0000    311000.100000       -14.484430    310782.800000       105.598100    310202.200000      -134.506100      1237.136000       178.647900      1256.007000       -61.156350      1243.477000        59.391610        59.973870        -0.143840
