Terminal: LT 500  C.GRANDE III - SANTA LUZIA II CZ6
Tensão base: 500 kV
SOC inicial: 1643124120
SOC final: 1643124179
Taxa: 1 fasores/s
Total de frames faltantes: - 

Tempo_(SOC)           VA_mod_(V)     VA_ang_(graus)     VB_mod_(V)     VB_ang_(graus)     VC_mod_(V)     VC_ang_(graus)     IA_mod_(A)     IA_ang_(graus)     IB_mod_(A)     IB_ang_(graus)     IC_mod_(A)     IC_ang_(graus)     Frequência        Delta_Freq     Faltante
1643124120.0000    309764.100000       -23.630200    309734.600000      -143.974200    308461.200000        96.113020        81.422840      -125.939500        86.332350       108.244200        81.532390       -12.635700        59.975320         0.023346
1643124121.0000    309622.300000       -32.626300    309642.900000      -152.963300    308404.300000        87.110730        81.422860      -134.460600        85.695930        99.378860        81.404930       -21.541090        59.973310        -0.020599
1643124122.0000    309584.200000       -42.040660    309625.600000      -162.374100    308376.700000        77.693730        80.962520      -144.614300        85.629850        89.979330        80.985240       -30.746440        59.973280        -0.048752
1643124123.0000    309660.000000       -52.029860    309626.500000      -172.385300    308337.200000        67.709210        81.745750      -153.973700        85.646010        80.205260        80.197970       -41.082740        59.971930         0.036392
1643124124.0000    309754.800000       -62.362850    309731.100000       177.293300    308464.000000        57.380880        80.754190      -163.808000        85.873790        70.732150        81.036250       -50.549460        59.971250         0.041885
1643124125.0000    309740.700000       -72.989490    309728.000000       166.670100    308486.700000        46.750910        81.714230      -174.784700        86.598700        59.959930        81.063380       -61.626550        59.971040         0.027924
1643124126.0000    309644.300000       -84.149830    309654.400000       155.502200    308359.700000        35.585540        80.984780       174.031600        85.786510        48.647930        81.207290       -72.516830        59.969560         0.029526
1643124127.0000    309541.300000       -95.690830    309590.800000       143.964100    308310.000000        24.039650        81.169560       162.733400        85.686620        37.775050        80.681480       -83.577220        59.965900        -0.041199
1643124128.0000    309724.200000      -107.207300    309730.100000       132.455600    308491.600000        12.538830        80.579770       150.337600        85.764620        26.204690        81.539310       -95.439450        59.970030         0.036163
1643124129.0000    309690.600000      -118.307000    309676.900000       121.345900    308398.700000         1.434451        80.571980       141.121800        85.961640        15.076060        80.602830      -106.283600        59.968870        -0.012131
1643124130.0000    309640.500000      -129.786100    309704.700000       109.871100    308403.500000       -10.057350        80.158230       130.044800        86.315500         3.732050        80.968280      -117.892100        59.967540         0.008926
1643124131.0000    309552.800000      -141.301400    309617.600000        98.358020    308333.300000       -21.570060        80.839280       117.510400        85.607920        -8.179632        80.469220      -129.259100        59.966660        -0.110092
1643124132.0000    309741.700000      -153.341600    309677.700000        86.313200    308457.700000       -33.589310        81.495940       104.752100        86.736240       -20.789520        81.141000      -141.466900        59.965720         0.062485
1643124133.0000    309598.300000      -166.485400    309550.300000        73.177770    308339.600000       -46.732990        81.651210        91.561090        86.648740       -33.328370        81.009100      -154.573100        59.961510        -0.026093
1643124134.0000    309569.300000       179.861500    309558.300000        59.527280    308347.800000       -60.392060        80.271510        77.660770        85.479100       -47.148550        81.498770      -168.688600        59.962270         0.021744
1643124135.0000    309577.800000       165.728200    309526.500000        45.387000    308310.000000       -74.521560        81.932810        63.965660        86.429450       -61.554490        80.483260       177.633000        59.958560        -0.103684
1643124136.0000    309729.500000       151.119200    309685.800000        30.763940    308386.400000       -89.141600        81.659070        49.467120        87.109440       -76.126360        80.560570       162.668900        59.959230        -0.020142
1643124137.0000    309564.100000       137.298500    309657.100000        16.952340    308322.400000      -102.978200        81.460910        36.374920        86.945910       -88.911710        80.962980       149.787000        59.961830        -0.007553
1643124138.0000    309776.100000       124.082900    309698.900000         3.737877    308458.600000      -116.164600        81.455730        22.710110        86.415090      -102.350100        81.734160       137.273100        59.963430        -0.021057
1643124139.0000    309688.000000       111.143800    309618.300000        -9.201596    308384.300000      -129.105000        81.247000         9.770733        85.859860      -115.506900        80.974180       123.002600        59.965650         0.089493
1643124140.0000    309602.000000        98.804610    309599.900000       -21.534030    308361.400000      -141.455100        80.089940        -2.582700        86.648040      -127.562600        81.200170       111.305300        59.964530        -0.046463
1643124141.0000    309624.900000        86.850900    309619.200000       -33.500150    308322.700000      -153.414600        80.362300       -13.925950        87.028760      -139.921100        80.165630        99.067540        59.966680        -0.067520          *
1643124142.0000    309723.500000        75.064540    309762.800000       -45.282660    308453.400000      -165.200300        80.750910       -25.714990        85.792480      -151.406000        80.992530        87.170360        59.967930         0.022659
1643124143.0000    309753.400000        63.809780    309751.600000       -56.532490    308473.300000      -176.447200        80.997230       -37.426640        86.034140      -162.558500        80.529330        76.863830        59.971950         0.072327
1643124144.0000    309689.400000        53.246070    309687.700000       -67.085420    308470.700000       172.991700        80.628260       -48.452990        86.379190      -173.173500        80.566650        65.336690        59.971370         0.011215
1643124145.0000    309676.400000        43.350890    309677.800000       -76.994260    308406.900000       163.091200        80.537920       -57.533050        86.992200       177.031700        81.316620        56.064710        59.970830        -0.085373
1643124146.0000    309682.500000        33.709270    309696.600000       -86.634900    308413.800000       153.447700        80.511030       -67.535180        86.080550       167.184200        80.501950        46.092120        59.972360        -0.068207
1643124147.0000    309747.400000        24.236830    309659.000000       -96.104710    308449.800000       143.989800        81.806550       -76.167070        85.304810       158.439300        81.380270        37.028000        59.973710         0.022202
1643124148.0000    309667.600000        14.690260    309648.300000      -105.660300    308344.100000       134.427800        81.372380       -85.729200        86.056340       148.559100        81.035850        27.195350        59.973770        -0.015106
1643124149.0000    309631.800000         5.598738    309584.700000      -114.749000    308327.600000       125.344600        80.213270       -94.416290        85.853850       139.165700        79.852670        18.711680        59.976420        -0.002060
1643124150.0000    309707.100000        -3.015971    309625.600000      -123.361100    308420.200000       116.735200        81.118590      -103.350600        84.870110       130.177900        80.962370         9.361169        59.975600        -0.056763
1643124151.0000    309781.000000       -10.694400    309767.500000      -131.047700    308442.300000       109.043200        80.146760      -112.478900        86.450890       122.995800        79.828480         1.900863        59.980720         0.041199
1643124152.0000    309747.200000       -17.504850    309746.400000      -137.850900    308454.200000       102.232300        80.997800      -118.784300        86.104150       116.497500        80.699970        -5.262097        59.983000         0.063171
1643124153.0000    309736.500000       -23.996220    309711.700000      -144.332200    308504.200000        95.751530        80.692260      -125.326000        85.432620       109.655600        81.412540       -11.930790        59.982600         0.005264
1643124154.0000    309685.700000       -30.064030    309653.500000      -150.415600    308374.100000        89.674900        80.230950      -131.444500        85.575180       102.319000        81.098070       -18.458380        59.985020         0.030670
1643124155.0000    309756.000000       -35.080630    309726.300000      -155.414000    308533.100000        84.664370        80.907420      -136.730300        85.415620        97.512700        80.570430       -23.149930        59.987410         0.029755
1643124156.0000    309746.300000       -39.364790    309790.600000      -159.705800    308516.700000        80.376890        80.494910      -141.356400        85.953750        93.589090        80.783480       -27.766060        59.989420         0.037994
1643124157.0000    309732.400000       -43.029280    309687.900000      -163.378900    308414.800000        76.713810        80.586300      -142.929600        84.847130        90.189360        79.836520       -31.158500        59.989960        -0.024719
1643124158.0000    309731.600000       -46.653030    309757.200000      -167.003800    308438.500000        73.077110        79.255510      -148.205900        84.739760        86.187440        80.196300       -35.122960        59.990950         0.013275
1643124159.0000    309768.200000       -49.227410    309772.500000      -169.570600    308489.500000        70.509460        79.937210      -150.540100        85.748110        82.934720        80.271610       -38.309890        59.994700        -0.023117
1643124160.0000    309758.400000       -50.757370    309741.200000      -171.113800    308425.000000        68.977720        80.327100      -151.733200        86.859770        82.282980        79.553170       -38.239130        59.996770        -0.012589
1643124161.0000    309831.500000       -51.939350    309835.300000      -172.281700    308566.400000        67.799640        80.317130      -155.536200        85.534010        79.057120        80.388050       -42.108400        59.998680         0.042801
1643124162.0000    309777.500000       -52.226310    309731.100000      -172.571700    308502.300000        67.520070        79.071310      -152.685400        85.717340        80.260600        80.589550       -39.866410        59.999260        -0.024719
1643124163.0000    309759.600000       -52.256460    309710.900000      -172.597800    308488.300000        67.492670        80.386610      -155.198000        85.837520        80.018170        79.895320       -40.631150        60.001250        -0.012817
1643124164.0000    309712.700000       -52.285580    309658.900000      -172.630800    308417.400000        67.461770        79.891420      -154.814400        85.237210        79.524150        80.537000       -41.162890        59.999890         0.006409
1643124165.0000    309738.500000       -52.535160    309707.000000      -172.881600    308476.300000        67.208270        79.104370      -155.382800        84.475580        79.069700        80.286620       -41.364380        59.999050        -0.002289
1643124166.0000    309636.500000       -52.624400    309610.000000      -172.969100    308348.200000        67.116110        80.545480      -154.868600        85.864820        79.866190        80.167180       -41.525080        60.000000        -0.003891
1643124167.0000    309520.000000       -53.445680    309540.000000      -173.789000    308257.400000        66.291530        79.861510      -156.286000        84.636610        78.808110        80.087350       -42.185650        59.995710        -0.056305          *
1643124168.0000    309531.800000       -55.230300    309508.200000      -175.577600    308241.000000        64.509160        79.292470      -159.060700        85.215340        76.148830        80.080460       -45.167420        59.994310        -0.031586
1643124169.0000    309588.800000       -56.963470    309581.500000      -177.312100    308302.700000        62.774650        80.206790      -158.561400        84.859050        75.669860        79.915030       -45.719860        59.994510         0.022430
1643124170.0000    309597.100000       -59.644960    309633.800000      -179.994100    308318.400000        60.084010        80.377450      -162.399100        86.388930        71.499820        80.775110       -49.663060        59.992370        -0.004578
1643124171.0000    309628.000000       -62.681940    309628.300000       176.977600    308367.000000        57.063440        79.464450      -166.088900        84.868040        69.899880        79.845440       -51.632640        59.992100         0.085144
1643124172.0000    309609.700000       -66.466930    309566.600000       173.193900    308358.100000        53.289070        81.129090      -169.151400        86.016470        66.394360        80.787080       -54.760160        59.987520        -0.051270
1643124173.0000    309602.300000       -71.354680    309563.500000       168.304900    308321.900000        48.389630        80.199380      -173.057600        86.121600        60.306640        81.329420       -60.737350        59.985810         0.067062
1643124174.0000    309589.800000       -76.912150    309627.100000       162.736100    308295.400000        42.814800        80.508090      -178.565900        86.343970        55.901320        81.094020       -65.118710        59.982740        -0.033417
1643124175.0000    309584.300000       -83.690620    309579.400000       155.966700    308313.800000        36.050690        81.117930       174.261100        85.725980        48.903040        80.431320       -71.280130        59.978250        -0.055389
1643124176.0000    309597.700000       -91.183910    309556.200000       148.467800    308298.500000        28.559160        80.698500       167.423900        85.650110        42.059250        80.924500       -78.669560        59.978680         0.006409
1643124177.0000    309663.300000       -99.205510    309655.600000       140.451500    308393.600000        20.535870        80.466520       159.004500        85.443950        33.879760        80.586560       -87.824290        59.977790        -0.015106
1643124178.0000    309712.200000      -107.060600    309643.300000       132.591400    308396.900000        12.688130        79.643140       152.114200        86.243530        26.260050        79.583400       -94.699660        59.977580         0.014420
1643124179.0000    309521.300000      -115.584600    309566.300000       124.064600    308234.100000         4.143847        80.158740       143.181200        86.880920        17.541730        80.122040      -103.953400        59.975440         0.079422
