Terminal: LT 500  SANTA LUZIA II - MILAGRES II CC5
Tensão base: 500 kV
SOC inicial: 1643124120
SOC final: 1643124179
Taxa: 1 fasores/s
Total de frames faltantes: - 

Tempo_(SOC)           VA_mod_(V)     VA_ang_(graus)     VB_mod_(V)     VB_ang_(graus)     VC_mod_(V)     VC_ang_(graus)     IA_mod_(A)     IA_ang_(graus)     IB_mod_(A)     IB_ang_(graus)     IC_mod_(A)     IC_ang_(graus)     Frequência        Delta_Freq     Faltante
1643124120.0000    306773.400000       -23.554330    308082.700000      -143.768100    305951.800000        96.306540        42.170930        55.849060        45.291350       -56.288760        50.218470      -179.364000        59.974880         0.001831
1643124121.0000    306659.000000       -32.550230    308020.600000      -152.759300    305862.200000        87.301070        42.299020        47.396060        45.537800       -66.552770        50.784480       171.932800        59.973040        -0.040741
1643124122.0000    306600.800000       -41.968510    307972.800000      -162.174900    305819.000000        77.880900        41.565280        35.617970        46.328780       -77.218350        50.766080       162.111100        59.973460        -0.031815
1643124123.0000    306675.300000       -51.961500    308019.700000      -172.183800    305818.800000        67.893550        43.620270        27.332320        45.591820       -85.880580        51.028200       152.319400        59.971810         0.022202
1643124124.0000    306751.100000       -62.298550    308102.500000       177.490400    305939.800000        57.560650        42.765290        15.160300        46.065550       -97.685640        49.903610       139.821900        59.971500         0.028839
1643124125.0000    306740.300000       -72.922940    308080.300000       166.870200    305943.600000        46.935230        42.281010         5.182464        45.386680      -106.974300        50.091450       129.880900        59.970880         0.030670
1643124126.0000    306656.500000       -84.079630    308007.100000       155.702000    305818.400000        35.771260        42.807910        -4.634211        45.739850      -118.195200        50.690330       119.274900        59.969500         0.025406
1643124127.0000    306569.900000       -95.628970    307935.600000       144.157400    305764.200000        24.220860        42.235240       -17.582170        45.779610      -131.726200        51.026150       107.486200        59.965950        -0.027924
1643124128.0000    306755.800000      -107.139700    308064.800000       132.652200    305939.500000        12.723440        42.773930       -27.586020        45.544240      -142.021000        50.490130        97.464440        59.970390         0.071869
1643124129.0000    306690.000000      -118.240900    308031.600000       121.544000    305867.200000         1.616087        42.309710       -38.666530        45.380800      -152.078400        49.737840        85.559930        59.969050        -0.013733
1643124130.0000    306647.000000      -129.720500    308051.900000       110.064600    305854.800000        -9.876313        43.699530       -51.730260        44.500440      -164.423000        49.645850        74.928720        59.967230        -0.012589
1643124131.0000    306573.900000      -141.237200    307975.700000        98.548630    305788.400000       -21.389500        41.985000       -61.114590        45.005030      -176.576300        50.497370        63.222310        59.966350        -0.100708
1643124132.0000    306738.400000      -153.275900    308009.300000        86.512200    305897.200000       -33.410310        41.864120       -75.544400        44.863150       172.765300        48.522270        49.418640        59.965500         0.042801
1643124133.0000    306606.600000      -166.417100    307904.700000        73.373280    305790.800000       -46.552460        42.821190       -88.273930        45.255880       159.602800        50.711090        38.062840        59.961750        -0.008698
1643124134.0000    306601.600000       179.929400    307901.800000        59.721620    305805.500000       -60.215020        41.846180      -101.355500        44.902930       145.138000        50.861600        22.964850        59.961810         0.009155
1643124135.0000    306593.800000       165.797800    307878.800000        45.585770    305737.300000       -74.337550        43.624530      -115.036000        44.553260       131.348600        50.600070        10.536040        59.959190        -0.066834
1643124136.0000    306724.400000       151.183700    308031.400000        30.961690    305841.400000       -88.959090        42.047440      -129.431200        44.728830       117.258200        50.561580        -5.478450        59.959800         0.016479
1643124137.0000    306584.200000       137.358000    307993.500000        17.142630    305763.600000      -102.802100        43.775740      -143.599700        45.008820       102.614900        50.436820       -19.079780        59.961700        -0.009842
1643124138.0000    306736.900000       124.143500    308038.500000         3.931734    305894.600000      -115.991000        42.230090      -157.499500        44.702480        88.732640        49.471470       -33.191950        59.963830        -0.007095
1643124139.0000    306679.600000       111.208100    307967.700000        -8.999982    305839.900000      -128.924400        42.662530      -169.820000        44.773280        76.568370        50.691620       -45.599180        59.965470         0.061111
1643124140.0000    306585.500000        98.862220    307929.500000       -21.342420    305798.000000      -141.277300        43.190700       177.732000        45.338030        62.006600        49.523780       -58.367410        59.965020        -0.021057
1643124141.0000    306620.100000        86.715930    307997.900000       -33.500120    305802.800000      -153.431700        42.070320       164.263400        44.855540        51.283490        50.373920       -70.802800        59.967430         0.008469
1643124142.0000    306709.200000        75.125440    308085.700000       -45.089120    305892.400000      -165.025300        42.805400       153.969700        44.660080        38.883960        50.042190       -82.620370        59.967940         0.008469
1643124143.0000    306755.000000        63.868990    308077.000000       -56.344410    305932.500000      -176.274000        43.102850       142.763400        44.772820        28.785270        50.754360       -94.291790        59.970820         0.032959
1643124144.0000    306682.300000        53.308750    308032.100000       -66.893510    305924.600000       173.170900        43.284530       133.460700        46.458580        17.927490        50.543790      -104.174800        59.971440         0.023575
1643124145.0000    306672.400000        43.412770    308002.400000       -76.801170    305839.500000       163.266600        43.429610       120.542800        45.135330         7.984760        50.262060      -113.322700        59.970500        -0.113983
1643124146.0000    306685.200000        33.769740    308032.600000       -86.445780    305856.100000       153.621300        42.249470       110.271300        45.938930        -3.470782        49.982530      -123.981800        59.972820        -0.051041
1643124147.0000    306713.800000        24.292470    308018.500000       -95.916690    305880.400000       144.159400        43.186010       100.481800        45.220230       -13.004560        49.987820      -134.942300        59.973950         0.018311
1643124148.0000    306657.700000        14.749390    307994.700000      -105.473000    305783.600000       134.603500        42.338910        92.676450        46.132710       -22.707930        50.226950      -143.586600        59.974010         0.000000
1643124149.0000    306661.400000         5.653524    307954.300000      -114.562900    305792.600000       125.516000        42.373140        83.704560        45.993630       -31.377060        50.991650      -153.806500        59.976300        -0.010071
1643124150.0000    306705.000000        -2.955787    307995.800000      -123.167400    305852.000000       116.910800        42.379840        74.913640        46.546900       -40.198000        51.080110      -161.487400        59.976000        -0.046921
1643124151.0000    306778.400000       -10.634450    308115.600000      -130.857600    305893.700000       109.222400        42.414130        70.152630        46.183050       -45.986560        50.367430      -169.578400        59.980350         0.031586
1643124152.0000    306748.800000       -17.440730    308078.900000      -137.658700    305901.100000       102.414600        43.414330        61.538320        45.749020       -52.801370        51.041260      -175.773100        59.982510         0.041428
1643124153.0000    306751.300000       -23.929540    308061.600000      -144.136200    305942.800000        95.934070        43.829680        54.772510        46.504070       -59.627960        50.738500       177.731600        59.982470         0.003433
1643124154.0000    306702.800000       -29.997280    308053.300000      -150.216400    305858.800000        89.855930        42.024170        48.300510        45.619490       -65.898680        51.132480       171.577700        59.984950         0.026779
1643124155.0000    306771.400000       -35.015720    308111.800000      -155.219400    305990.000000        84.845520        43.134600        43.129570        45.525820       -72.054990        50.014780       167.936800        59.987330         0.031357
1643124156.0000    306760.400000       -39.297680    308121.400000      -159.508300    305953.700000        80.558160        44.050720        40.635730        44.998590       -75.968090        49.908660       162.549700        59.989850         0.045547
1643124157.0000    306740.100000       -42.970080    308053.500000      -163.185700    305870.200000        76.887110        44.308690        34.887690        46.114110       -80.978520        52.191150       158.347300        59.990160        -0.021973
1643124158.0000    306751.300000       -46.587250    308122.300000      -166.805900    305895.300000        73.260240        43.824790        31.717890        46.011020       -83.112920        51.889910       155.053600        59.990840         0.002289
1643124159.0000    306785.800000       -49.157670    308145.500000      -169.372800    305961.500000        70.695470        42.623550        30.906690        46.030620       -86.420980        51.573670       153.083500        59.994270        -0.043488
1643124160.0000    306765.500000       -50.691590    308097.500000      -170.918300    305867.800000        69.160080        42.799540        26.633210        46.585720       -87.105060        51.881890       150.729200        59.996610        -0.009384
1643124161.0000    306844.500000       -51.862370    308202.300000      -172.074000    306040.300000        67.995100        42.946150        27.807940        46.586300       -86.401130        50.811290       152.093100        59.998710         0.047836
1643124162.0000    306796.900000       -52.160820    308101.900000      -172.374900    305972.700000        67.701020        43.785880        25.960660        46.939980       -89.300930        51.646370       149.927300        59.998810        -0.037766
1643124163.0000    306794.900000       -52.185370    308079.900000      -172.394800    305948.500000        67.678860        43.145150        25.889600        46.729630       -88.265010        51.732460       150.505400        60.001710        -0.004349
1643124164.0000    306746.400000       -52.211450    308030.900000      -172.422100    305897.200000        67.651690        43.351270        26.993660        47.371320       -87.503180        51.660610       150.553500        60.000180         0.009613
1643124165.0000    306767.900000       -52.464350    308102.200000      -172.678600    305942.800000        67.390650        44.404400        26.901830        46.692710       -87.286840        51.760700       150.344000        59.998810         0.009384
1643124166.0000    306674.200000       -52.553470    308021.400000      -172.767600    305845.400000        67.304080        43.189560        25.676940        45.760730       -89.189590        51.280820       148.254400        60.000690         0.035019
1643124167.0000    306620.200000       -53.422760    308019.800000      -173.629400    305869.300000        66.428730        44.304890        24.305250        46.305460       -89.374440        51.195800       148.652900        59.996760         0.021286
1643124168.0000    306597.100000       -55.154180    307921.000000      -175.364700    305778.000000        64.702710        43.211900        24.111760        47.876770       -90.112940        51.910240       148.561500        59.994540        -0.025177
1643124169.0000    306637.700000       -56.893180    307971.000000      -177.109500    305803.900000        62.962550        42.837750        21.350820        47.268140       -93.234430        51.666610       146.192600        59.994470         0.019913
1643124170.0000    306651.900000       -59.562860    308011.800000      -179.779600    305802.000000        60.285720        43.832240        19.414320        47.259920       -92.282620        51.831770       147.033900        59.992250        -0.014648
1643124171.0000    306660.000000       -62.606460    308014.000000       177.184300    305861.000000        57.254060        43.319730        16.525380        47.530920       -99.450040        52.001840       140.046200        59.991920         0.073471
1643124172.0000    306625.900000       -66.397610    307912.200000       173.396700    305807.700000        53.475150        44.242720        13.654940        45.917220      -102.507600        50.915870       135.857500        59.987100        -0.080566
1643124173.0000    306605.900000       -71.282940    307946.500000       168.509600    305789.500000        48.578720        42.681820         5.095878        46.878090      -105.980700        51.931060       131.220700        59.985440         0.052643
1643124174.0000    306617.200000       -76.846190    307989.700000       162.933400    305760.200000        43.001060        43.135980         1.328950        47.183750      -113.797900        51.141870       124.492800        59.983130        -0.011444
1643124175.0000    306602.200000       -83.623970    307961.400000       156.162800    305766.800000        36.232940        44.362660        -4.981185        46.798900      -122.897300        51.646390       117.155800        59.979210        -0.007553
1643124176.0000    306631.000000       -91.121040    307920.700000       148.663900    305769.000000        28.740110        42.882580       -14.583190        46.958920      -128.243500        51.134150       108.921200        59.979210         0.025864
1643124177.0000    306678.200000       -99.142430    308005.800000       140.643000    305856.700000        20.716220        42.425790       -21.914120        46.986540      -137.239300        51.470370       101.532700        59.977590        -0.000916
1643124178.0000    306728.500000      -106.997400    308022.800000       132.785900    305854.800000        12.867830        43.863560       -30.989560        45.873650      -144.585200        51.302880        94.483180        59.977910         0.019913
1643124179.0000    306518.000000      -115.520700    307916.800000       124.261200    305696.900000         4.327999        43.827920       -37.746270        45.492580      -152.183200        51.617120        86.030310        59.975460         0.071411
