Terminal: LT 525  BLUMENAU - CURIT.LESTE C1
Tensão base: 525 kV
SOC inicial: 1643124120
SOC final: 1643124179
Taxa: 1 fasores/s
Total de frames faltantes: - 

Tempo_(SOC)           VA_mod_(V)     VA_ang_(graus)     VB_mod_(V)     VB_ang_(graus)     VC_mod_(V)     VC_ang_(graus)     IA_mod_(A)     IA_ang_(graus)     IB_mod_(A)     IB_ang_(graus)     IC_mod_(A)     IC_ang_(graus)     Frequência        Delta_Freq     Faltante
1643124120.0000    309907.300000      -131.080500    311334.000000       108.883500    309629.400000       -11.233410       805.954500        53.406570       827.784500       -67.544430       822.905300       171.234100        59.974460        -0.025406
1643124121.0000    309926.000000      -140.202700    311429.300000        99.817250    309943.200000       -20.339830       806.338300        44.233000       831.382300       -76.741070       824.367100       161.791200        59.974690        -0.024490
1643124122.0000    309907.900000      -149.653400    311371.400000        90.354260    309869.300000       -29.789710       805.660000        34.795610       830.808000       -86.132740       824.195700       152.420400        59.974000         0.026093
1643124123.0000    309954.000000      -159.573700    311481.100000        80.452030    310010.200000       -39.707340       805.101700        24.853800       829.525500       -96.136120       823.267900       142.438700        59.974480         0.102997
1643124124.0000    310036.300000      -169.748700    311454.600000        70.268410    310009.000000       -49.867950       804.927900        14.612500       829.257400      -106.293800       823.750700       132.260500        59.971480         0.011902
1643124125.0000    309805.200000       179.516500    311298.700000        59.480960    309566.500000       -60.641960       805.414800         4.029637       828.284200      -116.950200       822.205400       121.758100        59.970740         0.038681
1643124126.0000    309834.000000       168.286700    311389.100000        48.268240    309711.900000       -71.875340       805.513900        -7.219060       827.916400      -128.262100       821.715900       110.468600        59.968170        -0.013962
1643124127.0000    309779.600000       156.628700    311137.900000        36.668490    309842.700000       -83.470780       805.368200       -18.862580       830.788800      -139.720000       825.138700        98.746320        59.968270         0.044174
1643124128.0000    309851.100000       145.493300    311296.000000        25.483280    309731.600000       -94.649750       805.266400       -30.030010       828.160600      -150.960500       822.917800        87.654500        59.968040         0.020142
1643124129.0000    309805.500000       133.935900    311339.800000        13.907670    309619.500000      -106.221500       807.816500       -41.549240       830.353000      -162.598500       824.420600        76.172430        59.968240         0.038223
1643124130.0000    310107.700000       122.678100    311550.900000         2.702996    310124.000000      -117.442100       805.296500       -53.006920       830.114100      -173.931000       823.967200        64.644580        59.970810         0.088806
1643124131.0000    309654.700000       111.013200    311204.500000        -9.009082    309507.000000      -129.146800       806.896500       -64.384690       829.694300       174.539500       822.732900        53.257690        59.968490         0.086746
1643124132.0000    309706.300000        98.714760    311223.700000       -21.328430    309438.100000      -141.449700       807.474000       -76.711260       828.967800       162.239100       823.469800        41.012480        59.964650        -0.047607
1643124133.0000    309587.900000        85.774610    311275.700000       -34.228160    309613.800000      -154.401000       806.908000       -89.574600       830.529400       149.327100       822.672900        28.011260        59.961500        -0.123367
1643124134.0000    309715.700000        72.244330    311176.900000       -47.790640    309461.200000      -167.908300       806.508100      -103.161400       829.182300       135.816400       823.234900        14.515280        59.959510        -0.082855
1643124135.0000    309931.200000        57.987510    311398.500000       -62.028960    309769.300000       177.841300       806.427200      -117.573500       830.204000       121.417400       823.706400         0.094496        59.959510        -0.037079
1643124136.0000    309865.500000        43.497640    311374.900000       -76.488880    309859.400000       163.365000       807.079400      -132.066500       831.544600       106.986100       825.587500       -14.413210        59.958910        -0.043259
1643124137.0000    309782.700000        29.405530    311151.700000       -90.589850    309662.300000       149.289100       805.555800      -146.026900       829.260900        93.072970       824.062100       -28.320160        59.964850         0.152206
1643124138.0000    309988.500000        15.984870    311400.600000      -103.982600    310018.900000       135.875200       806.887000      -159.626200       832.403000        79.447980       826.342800       -42.021360        59.963210        -0.101395
1643124139.0000    309639.700000         3.222434    311183.400000      -116.806700    309461.300000       123.058400       807.052000      -172.226600       829.569900        66.744620       823.749900       -54.537850        59.964260         0.024490
1643124140.0000    309833.100000        -9.353821    311355.000000      -129.338700    309843.300000       110.507600       806.646200       175.071900       830.511700        54.095310       824.455000       -67.303440        59.965870         0.048523
1643124141.0000    309580.700000       -21.436400    310961.600000      -141.437800    309439.100000        98.438280       805.999900       163.176700       829.521200        42.274410       824.429600       -79.095850        59.967910         0.066605
1643124142.0000    309580.300000       -33.160610    311138.900000      -153.196700    309408.100000        86.669220       808.833300       151.405600       830.751500        30.378530       824.569700       -90.865910        59.967380         0.016937
1643124143.0000    309804.200000       -44.320190    311345.600000      -164.309800    309808.900000        75.535450       807.004000       140.125600       830.828300        19.126150       824.432300      -102.233800        59.969060         0.028152
1643124144.0000    309925.900000       -54.777930    311403.700000      -174.767400    309895.600000        65.088810       806.963700       129.642100       830.951000         8.620830       824.734900      -112.757300        59.971240        -0.002747
1643124145.0000    309692.600000       -64.981110    311150.400000       175.049900    309734.900000        54.903050       806.404500       119.606400       832.057100        -1.345437       825.673500      -122.850300        59.972160         0.007782
1643124146.0000    309634.800000       -74.645020    311070.700000       165.371300    309617.500000        45.233820       805.859500       109.926700       830.516900       -10.994590       824.366400      -132.430100        59.975810         0.107117
1643124147.0000    309789.800000       -84.173260    311270.500000       155.825300    309713.600000        35.688900       806.406000       100.302400       829.807700       -20.662410       824.108300      -142.010000        59.973000        -0.048065
1643124148.0000    309728.900000       -93.553760    311153.900000       146.434800    309568.300000        26.307510       805.079200        91.010290       827.925200       -29.914220       823.229100      -151.291000        59.972320        -0.137100
1643124149.0000    309748.100000      -102.601700    311197.700000       137.378800    309564.500000        17.254640       805.672100        81.975110       828.612400       -38.988540       823.083800      -160.316000        59.976310         0.009155
1643124150.0000    309808.300000      -111.153500    311202.700000       128.826100    309580.800000         8.712990       808.177100        73.342860       830.805300       -47.549640       826.208000      -168.883500        59.977710         0.090179
1643124151.0000    309736.200000      -118.693700    311224.800000       121.318900    309713.300000         1.172133       808.376300        65.775970       832.643100       -55.179290       826.699200      -176.590500        59.980530         0.045319
1643124152.0000    309934.500000      -125.616800    311412.700000       114.392900    309898.500000        -5.750333       807.600000        58.803270       831.801300       -62.176660       825.906700       176.433400        59.982090        -0.035477
1643124153.0000    309798.900000      -132.054500    311396.500000       107.941000    309778.800000       -12.212020       807.419100        52.479470       831.022200       -68.593960       824.081300       170.091200        59.984510         0.059509
1643124154.0000    309683.700000      -137.899200    311164.300000       102.065700    309463.800000       -18.053420       806.982300        46.653080       828.840000       -74.341410       823.485200       164.424300        59.986500         0.040741
1643124155.0000    309791.400000      -143.017000    311326.200000        96.978360    309729.900000       -23.162140       809.187700        41.419730       832.517200       -79.560720       826.507600       159.072300        59.987350         0.005035
1643124156.0000    309791.300000      -147.123600    311407.500000        92.894590    309858.900000       -27.271050       806.814900        37.305870       831.242700       -83.742470       824.456700       154.889500        59.988240         0.000000
1643124157.0000    309861.900000      -151.077400    311398.900000        88.928610    309839.700000       -31.221010       807.870100        33.352640       832.601200       -87.670880       825.332300       150.944600        59.991400         0.071640
1643124158.0000    309777.300000      -154.522400    311292.800000        85.485380    309755.600000       -34.662610       807.999300        29.938070       832.598800       -91.061160       826.119400       147.553300        59.991870         0.016479
1643124159.0000    309455.700000      -156.955000    310932.900000        83.072060    309512.800000       -37.078930       807.080000        27.718910       832.491800       -93.218260       826.245600       145.284900        59.992970        -0.044861
1643124160.0000    309695.500000      -158.721100    311260.500000        81.272090    309621.400000       -38.868290       809.156300        25.727740       832.593200       -95.289410       825.987100       143.389500        59.995650        -0.060196
1643124161.0000    309636.900000      -159.640000    311142.000000        80.357890    309585.900000       -39.782700       807.504600        24.849140       831.414100       -96.161450       825.400300       142.482900        59.997570        -0.046692
1643124162.0000    309432.200000      -160.221900    311017.300000        79.754520    309304.000000       -40.387410       810.121300        24.396330       832.684700       -96.666890       826.013000       142.072700        59.996270        -0.191574
1643124163.0000    309415.000000      -160.355200    310776.300000        79.620350    309155.800000       -40.485360       809.221700        24.285300       831.143300       -96.625250       826.798800       142.092000        59.999040         0.000458
1643124164.0000    309368.900000      -160.297300    311040.500000        79.676810    309265.800000       -40.478810       809.270300        24.358560       832.346700       -96.755040       824.886800       141.980300        60.000450        -0.015793
1643124165.0000    309405.700000      -160.302200    311072.700000        79.708990    309481.800000       -40.463640       807.366500        24.373800       832.649200       -96.723360       824.145300       141.886600        59.998640        -0.001373
1643124166.0000    309418.200000      -160.763700    310806.200000        79.259540    309397.200000       -40.875060       807.121900        23.834800       832.980100       -97.066310       826.548100       141.395700        59.997870         0.008469
1643124167.0000    309271.800000      -161.723700    310987.300000        78.270240    309263.100000       -41.898990       808.233300        22.939180       832.564300       -98.167980       824.422600       140.512800        59.998340         0.067978
1643124168.0000    309328.400000      -162.821200    311123.300000        77.161800    309341.600000       -43.019490       807.777700        21.827490       832.320700       -99.365660       822.944200       139.337400        59.995310        -0.029755
1643124169.0000    309226.200000      -164.861300    310791.000000        75.172640    309354.700000       -44.996640       808.092700        19.777420       833.436300      -101.217900       826.247100       137.357900        59.993290         0.006866
1643124170.0000    309541.600000      -167.333700    310981.000000        72.668080    309455.500000       -47.462610       808.478900        17.107140       832.323500      -103.829500       826.658600       134.742900        59.992810         0.104599
1643124171.0000    309415.600000      -170.576700    310970.100000        69.410060    309316.100000       -50.734170       809.017100        13.900780       832.560400      -107.088700       826.068200       131.568600        59.990280         0.012360
1643124172.0000    309391.000000      -174.551300    310773.100000        65.441610    309225.000000       -54.678970       809.824200         9.914817       833.481400      -111.045900       827.421300       127.571200        59.989930         0.110321
1643124173.0000    309364.200000      -179.286900    310855.000000        60.704490    309232.300000       -59.428560       808.942200         5.188574       832.374800      -115.806800       826.095000       122.861200        59.986270        -0.029984
1643124174.0000    309273.200000       174.767700    310735.000000        54.742890    309062.800000       -65.378940       810.043400        -0.789734       832.918200      -121.695900       827.870500       116.971200        59.982340        -0.012589
1643124175.0000    309305.000000       168.172200    310842.100000        48.185870    309330.700000       -71.963700       808.844600        -7.336456       833.684500      -128.303500       827.183200       110.274400        59.979420        -0.071182
1643124176.0000    309282.400000       160.688900    310756.800000        40.708970    309290.800000       -79.435040       807.473500       -14.798890       832.159900      -135.714600       826.112700       102.840900        59.977390        -0.014877
1643124177.0000    309434.700000       152.948400    310865.100000        32.941330    309308.000000       -87.185660       809.207500       -22.657300       833.612900      -143.610800       827.662500        94.990990        59.978570        -0.003891
1643124178.0000    309237.000000       144.924900    310738.900000        24.902280    309040.300000       -95.225840       809.540200       -30.527120       831.986000      -151.538400       826.044100        87.188100        59.978170         0.088348
1643124179.0000    309248.400000       136.142600    310820.600000        16.138000    309196.400000      -104.011200       808.952800       -39.309510       832.719400      -160.370500       826.127600        78.303000        59.975930         0.014877
