Terminal: LT 525  C.NOVOS - ABDON BATISTA C1
Tensão base: 525 kV
SOC inicial: 1643124120
SOC final: 1643124179
Taxa: 1 fasores/s
Total de frames faltantes: - 

Tempo_(SOC)           VA_mod_(V)     VA_ang_(graus)     VB_mod_(V)     VB_ang_(graus)     VC_mod_(V)     VC_ang_(graus)     IA_mod_(A)     IA_ang_(graus)     IB_mod_(A)     IB_ang_(graus)     IC_mod_(A)     IC_ang_(graus)     Frequência        Delta_Freq     Faltante
1643124120.0000    309793.300000      -128.950800    310413.200000       110.950000    309557.100000        -9.187506       607.166300      -118.105000       602.877000       122.053500       617.530100         0.689102        59.974870        -0.011215
1643124121.0000    309757.000000      -138.068300    310367.100000       101.841600    309562.900000       -18.300770       606.595000      -127.176800       600.870600       113.041100       616.899300        -8.242140        59.974190        -0.046692
1643124122.0000    309752.000000      -147.513700    310392.400000        92.394350    309560.300000       -27.752890       607.537200      -136.670800       602.316500       103.550200       617.648700       -17.758750        59.973180         0.032043
1643124123.0000    309768.800000      -157.426500    310412.500000        82.507890    309704.600000       -37.650970       607.211200      -146.502500       602.869400        93.694150       618.147000       -27.723350        59.972460         0.018997
1643124124.0000    309836.600000      -167.607300    310463.400000        72.311570    309685.400000       -47.831920       606.408100      -156.728000       600.885900        83.430460       616.806100       -37.877790        59.971510         0.008011
1643124125.0000    309795.300000      -178.328200    310431.500000        61.565370    309527.800000       -58.571310       608.403600      -167.550800       602.854000        72.605740       618.375900       -48.713790        59.971340         0.093613
1643124126.0000    309760.800000       170.431200    310422.800000        50.348430    309608.700000       -69.803780       606.468800      -178.778600       602.587300        61.473090       617.916500       -60.008640        59.967940        -0.018082
1643124127.0000    309690.300000       158.780200    310277.300000        38.709790    309579.500000       -81.438420       608.619100       169.648400       603.467700        49.805420       618.795000       -71.482330        59.968080         0.049896
1643124128.0000    309812.700000       147.643600    310447.500000        27.549880    309607.500000       -92.594860       607.982200       158.379200       602.651400        38.595150       618.499600       -82.782890        59.968690        -0.000229
1643124129.0000    309797.300000       136.053500    310424.900000        15.947940    309535.900000      -104.186700       608.191400       146.790600       603.299200        27.050030       618.852700       -94.360290        59.968250         0.012360
1643124130.0000    309858.100000       124.804700    310468.000000         4.728330    309748.400000      -115.419200       606.288700       135.642100       600.837800        15.903170       616.798500      -105.473300        59.969200         0.042114
1643124131.0000    309648.200000       113.144900    310248.700000        -6.957063    309391.300000      -127.088700       607.308700       123.984700       602.163400         4.283882       617.963800      -117.121200        59.967140         0.043716
1643124132.0000    309675.700000       100.841100    310345.800000       -19.269110    309427.400000      -139.410200       607.609900       111.694600       602.546400        -8.194943       617.680700      -129.521600        59.965450        -0.013733
1643124133.0000    309661.300000        87.898750    310381.600000       -32.192330    309519.500000      -152.347600       606.809000        98.705500       602.369800       -21.014680       617.902000      -142.410500        59.962160        -0.085602
1643124134.0000    309684.100000        74.360980    310266.100000       -45.755470    309366.200000      -165.878900       606.736900        85.215360       601.315900       -34.496980       617.316500      -155.857600        59.960980        -0.030899
1643124135.0000    309813.000000        60.106460    310406.700000       -59.989020    309582.500000       179.873800       606.289100        70.925230       601.058200       -48.827920       617.127600      -170.196300        59.960200        -0.007553
1643124136.0000    309779.800000        45.605600    310413.600000       -74.483830    309600.200000       165.372500       607.067600        56.397410       601.977500       -63.387950       617.587200       175.290100        59.959280        -0.027008
1643124137.0000    309818.500000        31.544280    310394.500000       -88.541880    309600.900000       151.320200       606.776000        42.313070       601.358900       -77.490930       616.660900       161.204700        59.961810         0.020142
1643124138.0000    309897.000000        18.100820    310483.800000      -101.980000    309733.700000       137.876900       606.430200        28.914670       600.820300       -90.875490       616.668400       147.804000        59.964140        -0.017166
1643124139.0000    309694.700000         5.370683    310338.300000      -114.737200    309431.300000       125.123100       608.031700        16.276120       602.745400      -103.531000       618.077100       135.145900        59.965060         0.021286
1643124140.0000    309750.500000        -7.227487    310411.100000      -127.304600    309630.500000       112.538000       606.128500         3.650769       601.403400      -116.115200       616.613600       122.498200        59.966380         0.051270
1643124141.0000    309745.900000       -19.265330    310326.500000      -139.353900    309538.300000       100.510100       609.002100        -8.479687       603.845600      -128.297000       619.178800       110.331900        59.967680         0.054703
1643124142.0000    309709.700000       -31.033730    310324.900000      -151.126700    309487.300000        88.732930       607.123900       -20.172460       603.275100      -139.914700       618.526400        98.618790        59.967360         0.024719
1643124143.0000    309737.900000       -42.166290    310425.800000      -162.244200    309635.800000        77.600730       607.405600       -31.333450       603.113200      -151.063800       617.819000        87.512810        59.969330         0.010071
1643124144.0000    309877.100000       -52.652980    310454.800000      -172.741500    309640.500000        67.118930       606.954600       -41.804510       601.295500      -161.552700       617.726300        77.085550        59.971620         0.000229
1643124145.0000    309773.400000       -62.835820    310342.900000       177.072100    309559.300000        56.935130       607.739300       -52.022430       601.660700      -171.740600       618.058200        66.964450        59.972190        -0.016251
1643124146.0000    309744.100000       -72.481970    310318.100000       167.438900    309580.700000        47.296360       608.442800       -61.653960       603.781800       178.542400       619.208500        57.195660        59.974960         0.048752
1643124147.0000    309861.700000       -82.021410    310471.700000       157.887300    309662.400000        37.748430       607.640800       -71.295060       602.524800       168.928700       618.407600        47.566320        59.973180        -0.026550
1643124148.0000    309802.500000       -91.392810    310414.700000       148.510700    309580.000000        28.370180       608.284900       -80.620330       603.631900       159.593900       618.573200        38.211480        59.973790        -0.046692
1643124149.0000    309804.900000      -100.443300    310417.700000       139.456100    309549.600000        19.320640       609.116800       -89.687660       603.616200       150.522400       618.986100        29.180890        59.975800         0.010300
1643124150.0000    309865.800000      -109.014700    310428.000000       130.886100    309569.700000        10.753130       609.263700       -98.258370       604.172300       141.954600       619.546800        20.611860        59.977410         0.013046
1643124151.0000    309689.800000      -116.555800    310293.900000       123.369500    309547.300000         3.219293       609.187100      -105.699100       604.733800       134.530800       620.260500        13.164940        59.980040         0.008926
1643124152.0000    309834.100000      -123.488800    310447.100000       116.429200    309659.900000        -3.720747       607.577800      -112.641200       602.295000       127.614200       618.042700         6.225189        59.981390        -0.025635
1643124153.0000    309860.300000      -129.905300    310521.500000       110.004300    309669.500000       -10.144160       608.599500      -119.168400       603.783600       121.062100       619.414000        -0.299866        59.983490         0.019684
1643124154.0000    309792.700000      -135.731000    310423.200000       104.164200    309527.100000       -15.970790       609.653300      -125.028300       605.115500       115.179800       619.945300        -6.194991        59.985220         0.007553
1643124155.0000    309740.700000      -140.888200    310400.000000        99.014980    309546.200000       -21.131710       609.856900      -130.006100       604.744600       110.158100       620.044100       -11.134710        59.988080         0.006866
1643124156.0000    309670.600000      -144.963100    310348.800000        94.958770    309563.200000       -25.196500       608.405400      -134.054500       604.015100       106.203600       619.406900       -15.167450        59.988290         0.002060
1643124157.0000    309833.900000      -148.912300    310482.900000        90.996470    309633.200000       -29.150040       610.057000      -138.130800       604.601400       102.063500       620.364400       -19.233330        59.990330         0.027008
1643124158.0000    309812.100000      -152.347000    310448.200000        87.565000    309623.400000       -32.583960       610.910200      -141.648700       606.137800        98.596150       621.360100       -22.762100        59.992110         0.012817
1643124159.0000    309670.800000      -154.754400    310304.100000        85.168400    309533.200000       -34.986580       611.275100      -144.020300       606.110200        96.231700       621.322200       -25.109520        59.993710        -0.014648
1643124160.0000    309797.500000      -156.534300    310424.200000        83.369800    309594.900000       -36.770170       611.665000      -145.792900       606.856500        94.435070       622.466700       -26.930940        59.997040        -0.026093
1643124161.0000    309740.100000      -157.428300    310391.200000        82.482400    309556.100000       -37.664980       611.873800      -146.674100       607.038300        93.525240       622.743800       -27.821780        59.997630        -0.031128
1643124162.0000    309622.300000      -158.046100    310284.800000        81.858630    309442.300000       -38.287000       610.618500      -147.262800       606.506800        93.031660       622.001100       -28.411880        59.997300        -0.075989
1643124163.0000    309640.800000      -158.159500    310196.900000        81.748660    309404.900000       -38.382820       611.870800      -147.354700       607.752100        92.850040       622.501800       -28.523170        60.000630         0.016251
1643124164.0000    309653.500000      -158.118100    310353.000000        81.783360    309446.800000       -38.365700       611.063500      -147.333000       606.534100        92.883540       621.784300       -28.536580        60.000780        -0.011673
1643124165.0000    309705.600000      -158.090800    310408.700000        81.822650    309574.700000       -38.333290       611.845000      -147.399700       606.816500        92.801610       622.707000       -28.541000        59.999050        -0.012131
1643124166.0000    309619.000000      -158.537100    310141.100000        81.367680    309370.500000       -38.757630       613.850100      -147.700100       607.977700        92.557690       624.644500       -28.758080        59.997690        -0.022888
1643124167.0000    309566.200000      -159.509300    310288.300000        80.385980    309354.300000       -39.767240       612.656000      -148.754100       607.489100        91.471740       622.787100       -29.827840        59.999070         0.073929
1643124168.0000    309594.700000      -160.605000    310374.800000        79.287670    309395.400000       -40.873950       611.457300      -149.838700       606.104100        90.422100       621.889800       -30.933460        59.994770        -0.013275
1643124169.0000    309500.000000      -162.644100    310176.700000        77.292480    309445.700000       -42.870450       612.594700      -151.798300       608.873700        88.416730       623.491300       -33.010200        59.993460         0.006180
1643124170.0000    309609.900000      -165.123400    310195.000000        74.784160    309394.500000       -45.350590       611.825200      -154.243800       607.015600        85.998830       622.701200       -35.360600        59.991930         0.034561
1643124171.0000    309698.300000      -168.340800    310373.100000        71.556420    309476.900000       -48.590980       613.669200      -157.732100       608.650900        82.499470       623.513200       -38.864850        59.990800         0.020599
1643124172.0000    309635.900000      -172.311200    310176.400000        67.588870    309352.300000       -52.537850       613.569700      -161.576200       608.277600        78.692270       623.984800       -42.681710        59.987610         0.018082
1643124173.0000    309693.900000      -177.025200    310347.300000        62.880230    309505.100000       -57.267220       614.301100      -166.459000       609.875400        73.714580       624.712600       -47.604670        59.986250        -0.000916
1643124174.0000    309574.400000       177.027000    310267.700000        56.917050    309325.800000       -63.228820       616.134900      -172.293100       610.420300        67.816550       625.096300       -53.448830        59.982190        -0.025635
1643124175.0000    309649.500000       170.417500    310299.800000        50.332750    309501.500000       -69.821040       614.128900      -178.986400       608.872900        61.213300       624.483200       -60.085490        59.980030        -0.028610
1643124176.0000    309652.300000       162.954800    310306.500000        42.875380    309529.500000       -77.274710       613.721700       173.468800       609.094000        53.665140       624.426200       -67.645420        59.977670        -0.013733
1643124177.0000    309649.300000       155.185500    310232.300000        35.078110    309354.600000       -85.052380       614.623900       165.865800       608.666700        46.090510       624.712800       -75.187490        59.978060        -0.035477
1643124178.0000    309594.900000       147.179500    310218.700000        27.083670    309375.300000       -93.058000       613.331400       157.849100       609.354300        38.064480       624.216400       -83.342790        59.977520         0.049896
1643124179.0000    309654.000000       138.402500    310335.700000        18.309180    309468.000000      -101.841200       613.825700       148.977200       609.236000        29.171340       624.444500       -92.208890        59.975450        -0.000229
