Terminal: LT 500  G.VALADARES 6 - MUTUM C1
Tensão base: 500 kV
SOC inicial: 1643124120
SOC final: 1643124179
Taxa: 1 fasores/s
Total de frames faltantes: - 

Tempo_(SOC)           VA_mod_(V)     VA_ang_(graus)     VB_mod_(V)     VB_ang_(graus)     VC_mod_(V)     VC_ang_(graus)     IA_mod_(A)     IA_ang_(graus)     IB_mod_(A)     IB_ang_(graus)     IC_mod_(A)     IC_ang_(graus)     Frequência        Delta_Freq     Faltante
1643124120.0000    300078.200000       -71.143850    300220.800000       168.999500    299881.300000        49.025350       916.170900       -54.876680       921.913800      -175.770400       904.171900        64.214870        59.974160        -0.023117
1643124121.0000    300032.800000       -80.177430    300212.300000       159.970800    299882.500000        39.990350       917.558200       -63.948790       922.457800       175.226500       907.646100        55.141040        59.973420        -0.041885
1643124122.0000    299974.100000       -89.695100    300120.800000       150.450100    299774.000000        30.477240       918.708100       -73.384430       924.278000       165.717100       907.543200        45.591570        59.973510         0.001602
1643124123.0000    299622.100000       -99.787640    299845.400000       140.353000    299442.500000        20.373960       920.443600       -83.650310       925.500100       155.531500       909.282200        35.416740        59.971660         0.005951
1643124124.0000    299732.600000      -110.056700    299930.500000       130.082600    299540.000000        10.104280       919.234600       -93.921720       925.035000       145.269300       908.668200        25.177680        59.971650         0.035477
1643124125.0000    299477.300000      -120.713600    299657.200000       119.447100    299364.700000        -0.537374       920.564100      -104.509900       925.032500       134.528000       908.034500        14.537480        59.968910        -0.043030
1643124126.0000    299782.200000      -131.800100    299967.000000       108.341000    299605.400000       -11.635460       919.064100      -115.645000       924.475900       123.498100       908.417700         3.390962        59.968520         0.015793
1643124127.0000    299751.500000      -143.414200    299926.200000        96.737500    299593.900000       -23.242420       920.944000      -127.177800       925.067600       111.956100       909.074800        -8.122764        59.966990        -0.006638
1643124128.0000    299883.100000      -154.717100    300024.600000        85.438100    299729.300000       -34.541950       917.843000      -138.539000       924.010700       100.578400       906.442700       -19.490000        59.970300         0.033646
1643124129.0000    299837.300000      -166.022100    299996.100000        74.115430    299599.400000       -45.854730       921.050000      -149.715600       927.192000        89.373550       910.041200       -30.714710        59.969140         0.004349
1643124130.0000    299855.800000      -177.415400    300053.600000        62.737100    299708.000000       -57.248300       917.913100      -161.142500       922.670700        77.964010       906.699500       -42.050930        59.968300         0.034332
1643124131.0000    299833.800000       171.100700    300008.300000        51.249140    299667.000000       -68.728900       917.471800      -172.643400       922.215600        66.491350       906.193000       -53.591770        59.966040        -0.020599
1643124132.0000    299536.300000       158.968500    299737.900000        39.119220    299393.800000       -80.861260       920.927600       175.261300       925.023100        54.353280       908.438800       -65.781110        59.964390        -0.028610
1643124133.0000    299917.900000       145.864300    300135.600000        26.014680    299787.000000       -93.972080       918.267300       162.154800       924.323200        41.234310       906.842300       -78.728690        59.963020         0.013504
1643124134.0000    299909.800000       132.250200    300103.500000        12.395590    299732.000000      -107.583500       917.957000       148.471100       923.453700        27.640930       906.662300       -92.468700        59.962330        -0.007324
1643124135.0000    299763.200000       118.018700    299930.600000        -1.834638    299561.300000      -121.809700       919.891900       134.344800       925.732100        13.465840       908.956600      -106.581500        59.959550         0.002518
1643124136.0000    300047.900000       103.527600    300224.400000       -16.320040    299887.300000      -136.301200       916.408000       119.871200       922.033500        -1.070374       905.792400      -121.079300        59.960670        -0.013275
1643124137.0000    299840.600000        89.586780    300030.600000       -30.271630    299649.400000      -150.251300       921.258200       105.895100       927.361900       -15.018730       909.736900      -135.079800        59.962880         0.033875
1643124138.0000    299809.700000        76.244290    300002.200000       -43.612240    299637.700000      -163.590900       924.140100        92.580900       929.233500       -28.292920       913.203400      -148.418600        59.962910         0.004807
1643124139.0000    299808.700000        63.432710    299998.700000       -56.416300    299641.800000      -176.402600       922.278800        79.672900       927.076900       -41.261580       910.651900      -161.325700        59.966630         0.058136
1643124140.0000    299619.000000        50.816310    299793.500000       -69.038730    299446.200000       170.984200       926.391000        67.021160       933.029100       -53.817720       915.842700      -173.934000        59.964090        -0.017624
1643124141.0000    299588.700000        38.783390    299790.100000       -81.068410    299426.900000       158.947800       925.777400        54.968540       930.574900       -65.866320       913.831700       174.023000        59.969620         0.187683
1643124142.0000    299556.700000        27.060480    299761.700000       -92.789260    299412.400000       147.229200       927.743800        43.279150       932.789100       -77.573830       917.786100       162.343800        59.964900        -0.089035
1643124143.0000    299464.300000        15.896870    299669.300000      -103.946000    299366.800000       136.067000       927.861800        32.092640       933.039900       -88.791510       916.948100       151.132400        59.969230        -0.096130
1643124144.0000    299622.400000         5.300805    299814.900000      -114.549000    299496.100000       125.472800       926.885600        21.476580       932.324600       -99.338650       915.989300       140.595100        59.972450         0.071411
1643124145.0000    299657.300000        -4.683343    299821.200000      -124.536300    299460.900000       115.485000       926.397300        11.580820       930.843800      -109.231800       915.043400       130.763900        59.972150        -0.077820
1643124146.0000    299574.200000       -14.372970    299721.600000      -134.221900    299414.900000       105.799900       925.763000         2.002550       932.104000      -118.840600       914.412900       121.099900        59.974100         0.006409
1643124147.0000    299455.500000       -23.844210    299657.400000      -143.702200    299279.000000        96.318700       926.967500        -7.555643       931.804900      -128.445100       915.337500       111.423900        59.973230        -0.009155
1643124148.0000    299595.700000       -33.342060    299756.700000      -153.197800    299414.500000        86.828000       925.440800       -17.031410       930.478500      -137.932100       914.181000       102.037500        59.975320         0.053329
1643124149.0000    299702.900000       -42.321680    299886.700000      -162.178300    299526.500000        77.847070       924.505200       -26.045740       929.546900      -146.892100       913.154400        93.054710        59.976140         0.007782
1643124150.0000    299917.900000       -50.816470    300072.100000      -170.670700    299730.700000        69.359140       923.170400       -34.494170       926.488600      -155.439300       910.470700        84.536480        59.978760         0.024261
1643124151.0000    299771.800000       -58.445550    299988.300000      -178.295200    299639.100000        61.717030       922.519300       -42.272650       927.080800      -163.071900       911.187400        76.788090        59.980700         0.027924
1643124152.0000    299637.200000       -65.387800    299847.700000       174.753500    299451.200000        54.769180       925.827600       -49.224970       930.847300      -170.019500       915.060500        69.950280        59.982090         0.006180
1643124153.0000    299671.900000       -71.847840    299878.000000       168.294200    299497.500000        48.313530       925.180200       -55.774770       929.532800      -176.566900       913.276100        63.380940        59.982540         0.009613
1643124154.0000    300019.400000       -77.742160    300216.300000       162.395600    299814.300000        42.415920       920.950800       -61.558380       926.037000       177.598200       909.379500        57.473770        59.985520         0.014420
1643124155.0000    299934.600000       -82.755730    300102.100000       157.385500    299734.700000        37.410260       921.629600       -66.589830       926.541600       172.476800       910.014700        52.435740        59.986930         0.043488
1643124156.0000    299878.600000       -87.137650    300075.800000       153.004700    299679.400000        33.023240       922.789900       -70.958820       927.222700       168.171200       911.579900        48.132640        59.989190         0.013962
1643124157.0000    299863.900000       -90.942310    300051.700000       149.200700    299683.100000        29.220010       924.621900       -74.690040       929.389500       164.404200       913.769800        44.327300        59.988670        -0.003891
1643124158.0000    300324.000000       -94.223080    300531.000000       145.919400    300139.400000        25.937570       917.877600       -77.869670       922.754800       161.188400       905.997300        41.166690        59.992240        -0.010071
1643124159.0000    300175.300000       -96.758950    300433.400000       143.386500    300034.500000        23.394890       918.088100       -80.446100       923.609700       158.660900       907.563900        38.544360        59.993560        -0.023346
1643124160.0000    300078.600000       -98.449260    300314.200000       141.685500    299869.600000        21.708490       919.811500       -82.146640       925.790900       156.924200       909.276800        36.878770        59.995690        -0.012131
1643124161.0000    300353.200000       -99.409390    300551.100000       140.730300    300173.700000        20.751340       917.768700       -83.211720       922.922500       155.919600       907.227500        35.804780        59.998130         0.013962
1643124162.0000    300287.900000       -99.871080    300496.200000       140.264400    300079.100000        20.287140       920.309300       -83.641850       925.516000       155.556200       910.068400        35.438610        59.999140        -0.034103
1643124163.0000    300238.500000       -99.835270    300450.400000       140.306400    300056.800000        20.328230       920.102100       -83.577410       924.559000       155.507100       908.635900        35.445680        59.999420        -0.013275
1643124164.0000    300274.900000       -99.875530    300474.100000       140.262200    300079.700000        20.283740       919.749100       -83.528770       926.200200       155.509400       908.578600        35.441160        59.999910         0.018082
1643124165.0000    300322.700000       -99.993680    300516.900000       140.143800    300113.800000        20.166170       916.334500       -83.702930       922.505800       155.374000       905.645300        35.316230        60.000100         0.074844
1643124166.0000    300229.800000      -100.240500    300368.700000       139.890500    299961.700000        19.924270       919.026900       -83.951790       924.672000       155.162400       907.271400        35.072090        59.998320         0.013046
1643124167.0000    300350.300000      -101.066200    300491.300000       139.063200    300065.100000        19.097770       917.835100       -84.651160       923.002600       154.395900       906.903000        34.391160        59.998620         0.037079
1643124168.0000    300354.900000      -102.544400    300527.300000       137.598600    300158.000000        17.623910       912.298700       -86.254590       917.028000       152.875700       901.993300        32.810150        59.994870        -0.054245
1643124169.0000    300319.300000      -104.400400    300493.700000       135.748000    300129.400000        15.770860       913.575100       -87.928730       917.976400       151.130300       902.386800        31.009800        59.995420         0.082626          *
1643124170.0000    300354.700000      -107.019400    300505.200000       133.118300    300103.800000        13.147550       911.225300       -90.607740       916.981000       148.481500       901.303100        28.391430        59.991690         0.025635
1643124171.0000    300297.600000      -110.090100    300451.300000       130.053500    300085.600000        10.076450       912.167700       -93.651280       916.984800       145.432500       900.693600        25.278900        59.988430        -0.111237
1643124172.0000    300232.200000      -113.796300    300367.600000       126.343500    299992.500000         6.373148       914.811000       -97.439130       919.709800       141.650000       902.257100        21.573150        59.987880        -0.045090          *
1643124173.0000    300276.800000      -118.760700    300428.100000       121.376500    300041.600000         1.404248       912.067600      -102.374200       916.821000       136.745800       901.148400        16.641710        59.985930         0.015106
1643124174.0000    300216.600000      -124.419100    300396.100000       115.722300    300020.500000        -4.256435       915.070400      -108.095400       920.374100       130.979200       904.344700        10.941880        59.980860        -0.095673
1643124175.0000    300310.000000      -131.151900    300459.400000       108.989800    300104.600000       -10.985910       914.088400      -114.782000       919.271400       124.344600       902.060000         4.256749        59.981990         0.017853
1643124176.0000    300488.800000      -138.500000    300652.100000       101.639800    300270.700000       -18.335870       909.144500      -122.092500       915.369400       116.975100       897.938000        -3.104162        59.979950         0.037994
1643124177.0000    300471.500000      -146.431800    300602.500000        93.714870    300264.000000       -26.260700       907.768100      -130.111300       912.966700       109.009100       896.377700       -11.065080        59.978660         0.027466
1643124178.0000    300545.900000      -154.330300    300727.300000        85.816600    300353.900000       -34.165780       908.291700      -137.997200       913.366700       101.132300       895.921100       -18.960900        59.977760        -0.010529
1643124179.0000    300380.400000      -163.057300    300572.300000        77.086540    300192.800000       -42.892960       912.280600      -146.640500       916.937900        92.431940       900.783100       -27.669170        59.974660         0.024490
