Terminal: LT 500  C. PAULISTA - ANGRA FUR C1
Tensão base: 500 kV
SOC inicial: 1643124120
SOC final: 1643124179
Taxa: 1 fasores/s
Total de frames faltantes: - 

Tempo_(SOC)           VA_mod_(V)     VA_ang_(graus)     VB_mod_(V)     VB_ang_(graus)     VC_mod_(V)     VC_ang_(graus)     IA_mod_(A)     IA_ang_(graus)     IB_mod_(A)     IB_ang_(graus)     IC_mod_(A)     IC_ang_(graus)     Frequência        Delta_Freq     Faltante
1643124120.0000    308858.700000        23.935950    309922.900000       143.614400    311647.000000       -96.006520       943.922300      -147.950400       982.072600       -26.621540       946.565200        94.982910        59.973210         0.256304
1643124121.0000    308715.600000        14.812700    309719.700000       134.585500    311045.100000      -105.090500       946.443500      -157.276700       979.428200       -35.928980       945.811200        85.414570        59.972550        -0.164129
1643124122.0000    308647.200000         5.419738    309397.600000       125.048600    311498.700000      -114.596600       940.490800      -166.709300       981.502000       -45.527220       946.925200        76.312120        59.971690        -0.495846
1643124123.0000    309083.700000        -4.668803    310097.500000       115.073200    311562.500000      -124.586700       941.653600      -176.634600       976.394300       -55.301120       942.004800        66.118610        59.971290        -0.368424
1643124124.0000    309141.600000       -14.854960    310139.800000       104.858400    311737.900000      -134.790200       942.680700       173.394500       978.679600       -65.335300       944.566500        56.220530        59.971700         0.008955
1643124125.0000    309087.200000       -25.540210    310182.100000        94.148380    311851.600000      -145.472400       940.441700       162.623400       978.344200       -76.020450       942.578500        45.583360        59.971420        -0.229572
1643124126.0000    308595.600000       -36.763530    309868.500000        82.988400    311147.400000      -156.635300       946.953100       151.237500       980.799900       -87.296070       944.835600        34.023640        59.967440         0.115030
1643124127.0000    308974.600000       -48.268910    310066.100000        71.395940    311841.400000      -168.216300       942.713800       139.695700       982.592800       -98.928320       945.379800        22.743220        59.967240        -0.006798
1643124128.0000    308954.400000       -59.544540    309739.500000        60.180440    311393.000000      -179.508200       942.678700       128.575800       978.217500      -110.247300       946.056400        11.306910        59.968020        -0.377321
1643124129.0000    308973.700000       -71.023830    310175.300000        48.713840    311564.000000       169.084400       945.424000       117.079600       980.116400      -121.476800       944.277900        -0.095131        59.967800        -0.125311
1643124130.0000    309011.700000       -82.421490    310140.600000        37.333340    311489.800000       157.685800       943.095800       105.715200       977.680500      -132.873500       942.981000       -11.488290        59.970800        -0.021904
1643124131.0000    308572.800000       -94.017200    309756.200000        25.737600    311064.600000       146.099100       946.906100        93.932110       981.153000      -144.638700       945.593000       -23.263620        59.963630        -0.286951
1643124132.0000    308583.900000      -106.289900    309844.100000        13.431320    311279.900000       133.820200       945.118300        81.448010       981.916500      -157.065900       944.414200       -35.597340        59.964410        -0.204838
1643124133.0000    308773.000000      -119.149500    309775.100000         0.582314    311286.100000       120.923800       946.320500        68.815610       982.714700      -169.850300       948.075100       -48.333090        59.963180         0.014396
1643124134.0000    308477.800000      -132.776000    309896.900000       -13.016010    311071.500000       107.379600       950.049900        55.045040       983.933800       176.629000       946.455600       -62.110890        59.960320        -0.050465
1643124135.0000    308850.300000      -147.007300    310042.800000       -27.295380    311545.500000        93.086680       947.766700        40.962680       984.612900       162.397000       948.021500       -76.114900        59.960320         0.132804
1643124136.0000    308893.500000      -161.428100    310170.200000       -41.730690    311701.300000        78.671780       947.870300        26.604160       985.729900       148.074500       948.148400       -90.375560        59.958230        -0.402139
1643124137.0000    308863.300000      -175.527000    309924.900000       -55.773350    311306.900000        64.569870       948.437400        12.528800       982.441200       133.853500       948.563500      -104.742700        59.962250         0.175781
1643124138.0000    309228.600000       171.046600    310288.400000       -69.229130    311806.900000        51.124300       944.742000        -0.827418       980.940800       120.533100       946.417800      -117.971600        59.966160        -0.159261
1643124139.0000    308743.400000       158.269600    309957.200000       -81.975940    311263.900000        38.388770       949.404200       -13.707440       983.370700       107.726700       948.055200      -130.927600        59.968800         0.321987
1643124140.0000    308930.500000       145.693700    310032.400000       -94.557400    311410.000000        25.791050       946.840300       -26.356790       980.965900        95.020240       946.836200      -143.605000        59.966580         0.033188
1643124141.0000    308585.600000       133.669800    309913.200000      -106.604600    311296.200000        13.791570       946.184000       -38.514970       982.840800        83.004880       944.896400      -155.547100        59.964290        -0.440012
1643124142.0000    308986.400000       121.907600    310088.400000      -118.338000    311442.200000         2.009538       946.871900       -50.016780       981.301000        71.328540       947.044500      -167.250600        59.966660        -0.076625
1643124143.0000    309163.800000       110.741600    310112.500000      -129.515700    311598.000000        -9.186480       945.124000       -60.987150       980.715300        60.271640       947.197700      -178.205300        59.969860         0.019234
1643124144.0000    308978.800000       100.242800    310035.700000      -140.045200    311607.900000       -19.684300       947.210800       -71.531450       984.248700        49.774740       949.307600       171.330100        59.972100         0.108214
1643124145.0000    308897.600000        90.148740    309922.800000      -150.125000    311451.300000       -29.775300       947.714700       -81.832480       983.272600        39.492620       949.299000       161.005100        59.973750         0.367531
1643124146.0000    308789.000000        80.531680    309755.700000      -159.790300    311526.400000       -39.430590       947.249800       -91.505650       985.536400        29.787210       950.386700       151.438200        59.975360         0.065301
1643124147.0000    309139.300000        70.943980    310116.100000      -169.354800    311778.500000       -49.001730       945.065600      -100.926700       982.691500        20.374800       947.705700       141.977100        59.972780         0.094961
1643124148.0000    308888.800000        61.553160    309929.400000      -178.798600    311814.900000       -58.411320       945.585600      -110.477700       986.020800        10.853760       949.341900       132.586400        59.973950        -0.226068
1643124149.0000    308835.200000        52.487290    309979.400000       172.192800    311539.500000       -67.428560       947.653600      -119.424400       985.107400         1.958541       948.881000       123.494000        59.976070         0.208694
1643124150.0000    309308.500000        44.028540    310275.300000       163.736900    311905.800000       -75.914220       946.856200      -127.687700       984.035000        -6.375129       949.272900       115.208700        59.979240         0.161324
1643124151.0000    309326.400000        36.436710    310209.900000       156.183500    311704.500000       -83.498860       945.876100      -135.198100       980.533300       -13.995780       948.578700       107.485500        59.981160        -0.045314
1643124152.0000    309358.000000        29.466350    310418.600000       149.185400    311949.300000       -90.455090       944.905500      -142.196500       981.372900       -20.860750       946.458400       100.671300        59.980580        -0.107471
1643124153.0000    308928.000000        22.988910    309986.500000       142.768200    311250.500000       -96.904070       948.722600      -148.899100       981.749700       -27.557050       948.340800        93.798870        59.980910        -0.095216
1643124154.0000    308942.300000        17.159680    310164.300000       136.871500    311668.100000      -102.741100       945.894000      -154.838600       983.021300       -33.411460       946.299800        88.121480        59.980510        -0.330841
1643124155.0000    308964.500000        12.130760    309879.300000       131.836100    311547.500000      -107.822200       944.118900      -160.006800       981.223200       -38.711790       946.815400        82.857280        59.987910        -0.021531
1643124156.0000    309175.800000         7.838462    310123.700000       127.572400    311654.600000      -112.094200       945.616000      -163.813400       980.972900       -42.530280       947.300000        78.992390        59.988010         0.108637
1643124157.0000    309297.700000         3.942200    310260.400000       123.660700    311856.300000      -115.997300       943.293200      -167.783100       979.687100       -46.505440       945.892200        75.036330        59.990790         0.283903
1643124158.0000    309179.500000         0.582323    310134.400000       120.308200    311683.700000      -119.352300       946.746700      -171.146800       982.708000       -49.863760       949.118800        71.656120        59.990470        -0.082344
1643124159.0000    309147.500000        -1.887851    310197.000000       117.866600    311579.200000      -121.794700       945.492900      -173.666500       980.038000       -52.365400       946.371200        69.068710        59.993210         0.138657
1643124160.0000    309241.800000        -3.597612    310224.900000       116.114100    311837.900000      -123.537600       945.591400      -175.386100       982.439000       -54.074900       947.802200        67.474690        59.996040        -0.080425
1643124161.0000    309036.300000        -4.563741    309979.500000       115.157200    311577.500000      -124.503700       946.439000      -176.352200       982.549900       -55.087420       948.531900        66.448050        59.997030        -0.217452
1643124162.0000    309114.800000        -5.115603    310233.200000       114.619600    311673.500000      -125.022800       946.073200      -176.952300       981.748000       -55.596310       946.702800        65.895000        59.998000        -0.114037
1643124163.0000    308688.100000        -5.187887    309778.900000       114.506400    311426.800000      -125.120600       946.057100      -177.208100       984.205900       -55.849590       947.911200        65.723950        60.000600         0.004488
1643124164.0000    308970.700000        -5.189445    310047.200000       114.517200    311635.900000      -125.118100       947.010600      -177.180200       983.783500       -55.827800       948.470100        65.710490        59.999790         0.091508
1643124165.0000    308866.300000        -5.207343    309844.400000       114.503200    311471.300000      -125.149600       948.401000      -177.065000       984.943500       -55.789790       950.876300        65.777310        59.997000         0.147750
1643124166.0000    308809.500000        -5.564589    309638.000000       114.157300    311272.100000      -125.523200       946.628800      -177.590700       982.889700       -56.395020       950.044000        65.201910        59.998290         0.225609
1643124167.0000    308637.100000        -6.562758    309919.800000       113.165600    311312.600000      -126.445600       947.990500      -178.727000       983.907000       -57.230670       947.034600        64.178220        59.998150        -0.094716
1643124168.0000    309064.700000        -7.761773    310242.400000       111.950100    311750.800000      -127.670500       946.668900      -179.579100       983.508900       -58.158530       947.125100        63.360940        59.995500        -0.181672
1643124169.0000    308978.000000        -9.703747    310132.200000       110.038500    311514.800000      -129.600000       947.779100       178.555700       983.216700       -60.044540       947.674700        61.408500        59.996000         0.258121
1643124170.0000    308532.800000       -12.245600    309698.400000       107.468700    311198.300000      -132.153100       950.280500       175.679500       986.633600       -62.905430       950.638500        58.569130        59.991040         0.293520
1643124171.0000    308236.000000       -15.496040    309657.800000       104.283200    310740.800000      -135.329000       951.374300       172.161200       984.832200       -66.283330       947.901900        54.977800        59.988850        -0.183720
1643124172.0000    308555.500000       -19.392790    309837.400000       100.346800    311182.600000      -139.270700       948.767500       168.482500       984.502700       -70.074740       948.155500        51.350850        59.986710        -0.042437
1643124173.0000    308552.400000       -24.205310    309745.000000        95.589850    310870.200000      -144.067500       950.648700       163.731700       982.831200       -74.899640       948.675200        46.366980        59.983910        -0.046567
1643124174.0000    308604.900000       -30.022100    309616.100000        89.708600    311131.200000      -149.947000       949.230500       157.841100       985.873800       -80.826210       950.785500        40.691360        59.982260         0.086119
1643124175.0000    308470.000000       -36.647630    309636.300000        83.079720    311097.300000      -156.549900       949.614600       151.235900       985.722200       -87.366790       949.983900        34.125210        59.977330        -0.149511
1643124176.0000    308816.500000       -44.111660    309799.400000        75.647660    311189.700000      -164.027000       948.789100       143.945100       983.568600       -94.777180       950.030000        26.678430        59.975170        -0.563171
1643124177.0000    308874.400000       -51.858020    310167.100000        67.829620    311740.600000      -171.762300       947.913100       136.260000       986.820800      -102.257800       948.604400        19.315120        59.978660        -0.371327
1643124178.0000    308805.500000       -59.841780    309710.100000        59.886900    311275.800000      -179.783200       950.891800       128.290000       987.020600      -110.475400       953.563800        11.056280        59.981040         0.390744
1643124179.0000    308865.400000       -68.646540    310004.800000        51.113960    311328.600000       171.462400       950.107200       119.367100       984.407200      -119.254700       949.690400         2.131742        59.976040         0.261257
