Terminal: LT 500  MARITUBA - VILA DO CONDE C1
Tensão base: 500 kV
SOC inicial: 1643124120
SOC final: 1643124179
Taxa: 1 fasores/s
Total de frames faltantes: - 

Tempo_(SOC)           VA_mod_(V)     VA_ang_(graus)     VB_mod_(V)     VB_ang_(graus)     VC_mod_(V)     VC_ang_(graus)     IA_mod_(A)     IA_ang_(graus)     IB_mod_(A)     IB_ang_(graus)     IC_mod_(A)     IC_ang_(graus)     Frequência        Delta_Freq     Faltante
1643124120.0000    304338.500000       -14.551780    304177.200000      -134.596000    304010.000000       105.456100       419.406100       162.282200       421.386000        43.254490       428.363800       -76.600230        59.975140         0.004807
1643124121.0000    304284.800000       -23.549170    304159.800000      -143.595900    303956.900000        96.451370       419.938900       153.333300       421.269700        34.307740       428.977800       -85.601170        59.975580         0.032959
1643124122.0000    304186.200000       -32.919920    304062.500000      -152.965700    303868.600000        87.082310       419.622900       144.017300       421.356900        24.963020       428.479900       -94.942820        59.972870        -0.016937
1643124123.0000    304211.800000       -42.885500    304074.200000      -162.934600    303871.600000        77.117940       419.701000       134.037500       421.004300        14.976190       428.796900      -104.912200        59.971870         0.009842
1643124124.0000    304196.800000       -53.400030    304078.000000      -173.444400    303881.700000        66.601180       419.726400       123.500600       421.549100         4.480175       428.612400      -115.429200        59.971260        -0.009613
1643124125.0000    304153.300000       -63.848740    304029.400000       176.111300    303864.300000        56.157160       419.872900       113.123600       421.281200        -5.951019       428.460900      -125.873400        59.970340         0.020142
1643124126.0000    304145.400000       -75.018080    304014.600000       164.937000    303824.300000        44.987370       420.067000       101.916400       421.973100       -17.180860       428.828200      -137.031100        59.968090        -0.005264
1643124127.0000    304208.900000       -86.593210    304036.800000       153.367000    303902.600000        33.415000       419.946400        90.354130       421.228600       -28.753840       428.766300      -148.607400        59.966860        -0.011444
1643124128.0000    304347.600000       -98.251980    304215.700000       141.706600    304062.000000        21.758190       419.967500        78.631400       421.682600       -40.454840       428.865900      -160.387800        59.968530        -0.024948
1643124129.0000    304243.900000      -109.198700    304131.100000       130.752300    303913.800000        10.806710       420.063600        67.612500       421.386100       -51.411420       429.160200      -171.376800        59.969220        -0.019226
1643124130.0000    304071.700000      -120.662400    303937.600000       119.291600    303758.400000        -0.655445       420.048000        56.243950       421.861400       -62.854710       428.965700       177.285000        59.967040         0.000916
1643124131.0000    304025.300000      -132.123300    303862.400000       107.825100    303669.600000       -12.116480       420.058300        44.781700       421.597600       -74.275100       428.597300       165.768700        59.966920        -0.064316
1643124132.0000    303949.700000      -143.966400    303813.400000        95.982760    303604.500000       -23.964110       419.904100        32.955520       421.234400       -86.113960       429.155100       153.947600        59.964590        -0.047150
1643124133.0000    303968.800000      -157.162700    303837.500000        82.785770    303625.800000       -37.158790       420.416000        19.703680       422.160600       -99.302740       429.260700       140.726700        59.962750         0.019684
1643124134.0000    304058.500000      -171.008000    303905.100000        68.940820    303718.700000       -51.004690       420.263200         5.895949       421.762400      -113.192200       429.153000       126.931400        59.960490        -0.032272
1643124135.0000    304145.000000       175.011900    303975.700000        54.964080    303815.800000       -64.977680       420.233600        -8.080496       421.373700      -127.176500       428.920500       112.852100        59.960150         0.010757
1643124136.0000    304147.700000       160.247600    304000.100000        40.202550    303822.500000       -79.744860       420.125900       -22.945180       421.462200      -141.978900       428.850300        98.107180        59.959710        -0.020142
1643124137.0000    304296.500000       146.349000    304159.100000        26.298320    303963.200000       -93.650150       420.041600       -36.808320       421.975800      -155.867000       429.396600        84.200920        59.963060        -0.007553
1643124138.0000    304218.300000       133.306900    304093.000000        13.260660    303894.900000      -106.687100       420.201900       -49.858920       421.365600      -168.852500       429.017100        71.167000        59.963890         0.029984
1643124139.0000    304208.600000       120.395000    304102.300000         0.346719    303882.500000      -119.605000       420.844900       -62.776530       421.982000       178.210700       429.260600        58.255250        59.965220         0.012131
1643124140.0000    304146.600000       108.032300    304002.400000       -12.010090    303838.300000      -131.960000       420.249500       -75.096510       421.724400       165.828400       429.703000        45.883760        59.966530         0.008698
1643124141.0000    304175.500000        95.871100    304033.100000       -24.176430    303848.400000      -144.124600       420.042000       -87.265270       421.835700       153.728400       428.877800        33.793010        59.966190        -0.043945
1643124142.0000    304166.400000        84.312280    304067.400000       -35.732330    303867.700000      -155.688200       420.478100       -98.870990       421.596000       142.101300       429.563000        22.284810        59.968310         0.000916
1643124143.0000    304201.400000        72.932290    304075.300000       -47.112340    303895.100000      -167.065500       420.790900      -110.218900       422.291600       130.690700       429.528200        10.806300        59.968960        -0.024261
1643124144.0000    304180.600000        62.340970    304061.300000       -57.697890    303901.700000      -177.654800       420.598000      -120.836900       422.339800       120.075100       429.653000         0.218820        59.971360        -0.028610
1643124145.0000    304137.700000        52.571780    304020.300000       -67.469000    303829.300000       172.576800       420.472400      -130.599600       421.957100       110.393400       430.057400        -9.599319        59.972840        -0.022659
1643124146.0000    304159.000000        42.839270    304076.200000       -77.203970    303893.600000       162.838600       420.454300      -140.355900       421.971500       100.622800       429.765200       -19.319990        59.973140         0.007324
1643124147.0000    304206.800000        33.446610    304102.700000       -86.598700    303927.500000       153.451200       420.378000      -149.787600       422.141200        91.260640       429.835300       -28.682150        59.974770        -0.000687
1643124148.0000    304116.900000        23.888640    303992.800000       -96.153140    303834.300000       143.894100       421.063100      -159.319900       422.529200        81.647250       429.803900       -38.232360        59.973180         0.004349
1643124149.0000    304264.200000        14.615850    304133.900000      -105.428700    303967.600000       134.625300       421.187600      -168.594500       422.447800        72.355190       430.309100       -47.505630        59.976000         0.010529
1643124150.0000    304382.500000         6.120134    304228.800000      -113.924400    304068.600000       126.128500       420.082100      -177.081200       421.962400        63.858310       429.280800       -56.090590        59.977350        -0.007095
1643124151.0000    304337.900000        -1.634128    304215.200000      -121.679200    304038.100000       118.371800       420.764800       175.213800       422.165400        56.139660       430.221300       -63.811180        59.980820         0.007553
1643124152.0000    304243.300000        -8.281909    304118.200000      -128.328200    303927.800000       111.724300       420.326600       168.554900       421.922100        49.560940       429.752200       -70.355530        59.981210        -0.017166
1643124153.0000    304284.000000       -14.871620    304161.600000      -134.919000    303962.800000       105.132600       421.259900       161.946900       422.138300        42.941420       429.694900       -76.977440        59.983580         0.033417
1643124154.0000    304352.300000       -20.943530    304216.100000      -140.985900    304031.900000        99.066760       420.895500       155.810200       421.972500        36.880930       430.205500       -83.047100        59.983410         0.005722
1643124155.0000    304452.500000       -25.996430    304275.300000      -146.048500    304077.300000        94.009280       420.375900       150.769500       422.164300        31.758580       429.924600       -88.132890        59.987590         0.009613
1643124156.0000    304243.000000       -30.260700    304110.900000      -150.308000    303923.100000        89.746850       420.812000       146.619800       422.465300        27.524310       429.936600       -92.374010        59.987910        -0.024033
1643124157.0000    304277.800000       -33.941310    304143.900000      -153.989900    303968.800000        86.066150       420.646300       142.935400       422.164500        23.898390       430.027500       -96.056970        59.990630         0.038223
1643124158.0000    304266.200000       -37.555950    304132.900000      -157.601000    303936.900000        82.450700       420.822300       139.253900       422.018000        20.268710       429.615900       -99.709710        59.990260        -0.000916
1643124159.0000    304442.300000       -40.240270    304298.000000      -160.285000    304125.800000        79.764730       420.693100       136.588400       422.114600        17.545710       429.703500      -102.406300        59.995400         0.008698
1643124160.0000    304444.500000       -41.687390    304324.200000      -161.736600    304135.400000        78.315510       420.953200       135.125500       421.970400        16.089110       429.422600      -103.837300        59.996220        -0.041428
1643124161.0000    304538.900000       -42.820370    304405.200000      -162.866200    304223.400000        77.183430       420.173900       134.044200       422.067600        14.973490       429.737700      -104.943300        59.997820         0.021973
1643124162.0000    304589.300000       -43.241060    304458.900000      -163.283400    304287.700000        76.769040       420.646100       133.518100       421.921800        14.515860       429.597900      -105.389500        59.999820        -0.023575
1643124163.0000    304573.100000       -43.217030    304451.300000      -163.263100    304259.800000        76.789470       420.787000       133.628700       421.333100        14.550820       429.606900      -105.353400        60.000980        -0.005264
1643124164.0000    304474.200000       -43.144290    304330.400000      -163.188300    304151.300000        76.863450       420.026800       133.716400       422.071600        14.659350       429.485000      -105.298100        59.998000        -0.070496
1643124165.0000    304460.600000       -43.595710    304314.400000      -163.645800    304105.000000        76.412610       420.834900       133.215300       422.169100        14.195830       429.977000      -105.667800        59.999030         0.032959
1643124166.0000    304405.200000       -43.631290    304275.800000      -163.682400    304061.300000        76.371010       420.870700       133.207800       422.409000        14.086160       429.801900      -105.826600        60.000980         0.078735
1643124167.0000    304399.400000       -44.409580    304242.300000      -164.451900    304079.700000        75.605640       420.563700       132.441400       422.085400        13.404430       429.622600      -106.521900        59.995560         0.025864
1643124168.0000    304461.900000       -46.311570    304322.100000      -166.354000    304139.100000        73.694960       420.869800       130.470100       422.389900        11.452370       429.752800      -108.447000        59.994010        -0.006866
1643124169.0000    304568.000000       -48.155740    304423.400000      -168.202700    304239.800000        71.851270       420.707400       128.633800       421.996200         9.602331       429.858300      -110.267700        59.995400         0.009842
1643124170.0000    304443.600000       -50.663930    304284.100000      -170.703900    304107.900000        69.347200       420.497500       126.150100       421.679500         7.080492       429.575100      -112.808600        59.991700        -0.024948
1643124171.0000    304475.400000       -53.791690    304335.200000      -173.831600    304163.400000        66.219380       419.983700       123.041500       421.925200         3.982780       429.379900      -115.911100        59.990530        -0.005035
1643124172.0000    304406.300000       -57.598510    304237.600000      -177.637700    304092.000000        62.415890       420.385500       119.228600       421.933200         0.190381       429.262100      -119.723600        59.987030        -0.040054
1643124173.0000    304320.300000       -62.448770    304185.800000       177.507800    303998.500000        57.556130       420.404700       114.336100       422.161500        -4.644574       429.367500      -124.527400        59.984330        -0.060425
1643124174.0000    304301.100000       -68.010780    304154.000000       171.945200    303973.200000        52.000610       420.356000       108.885800       421.797800       -10.194230       429.667800      -130.154800        59.982470        -0.010757
1643124175.0000    304324.100000       -74.839900    304181.900000       165.114600    303995.900000        45.164460       420.313700       102.030900       422.189100       -17.043870       429.665300      -136.953300        59.979000         0.002289
1643124176.0000    304406.200000       -82.398860    304262.800000       157.560800    304101.500000        37.609930       421.018900        94.420540       422.228000       -24.642690       429.897900      -144.504000        59.979500         0.004120
1643124177.0000    304497.300000       -90.437680    304356.600000       149.516800    304175.700000        29.568870       420.061900        86.325250       421.830300       -32.634220       429.368400      -152.535400        59.977560        -0.007095
1643124178.0000    304524.100000       -98.313680    304370.700000       141.643400    304203.300000        21.695580       420.644300        78.458400       422.100500       -40.505440       429.284300      -160.450900        59.978900         0.010071
1643124179.0000    304343.800000      -106.616600    304240.100000       133.340400    304041.800000        13.384190       420.498000        70.258580       421.621900       -48.787980       429.224700      -168.760800        59.974610        -0.019226
