Terminal: LT 500  C. PAULISTA - TIJUCO PRETO C1
Tensão base: 500 kV
SOC inicial: 1643124120
SOC final: 1643124179
Taxa: 1 fasores/s
Total de frames faltantes: - 

Tempo_(SOC)           VA_mod_(V)     VA_ang_(graus)     VB_mod_(V)     VB_ang_(graus)     VC_mod_(V)     VC_ang_(graus)     IA_mod_(A)     IA_ang_(graus)     IB_mod_(A)     IB_ang_(graus)     IC_mod_(A)     IC_ang_(graus)     Frequência        Delta_Freq     Faltante
1643124120.0000    308628.300000        23.946480    311573.700000       143.576400    312021.800000       -96.049450       711.925500        30.406030       682.216200       148.366700       705.590400       -94.731700        59.973210         0.146819
1643124121.0000    308488.400000        14.821410    311359.800000       134.545100    311416.300000      -105.138600       711.272200        21.396760       683.235000       139.360500       705.072500      -103.621700        59.971590        -0.244469
1643124122.0000    308407.500000         5.428007    311030.700000       125.009300    311868.900000      -114.643900       711.622300        11.899390       680.828600       129.932600       703.623700      -113.273100        59.971980        -0.465853
1643124123.0000    308852.000000        -4.660611    311740.500000       115.033100    311927.800000      -124.631500       708.494300         1.826960       679.828700       119.807500       701.746700      -123.252900        59.971570        -0.370872
1643124124.0000    308914.400000       -14.845180    311778.600000       104.820100    312112.300000      -134.834600       708.518100        -8.337227       679.614200       109.583500       701.988700      -133.467400        59.971690        -0.051568
1643124125.0000    308861.600000       -25.530450    311831.500000        94.109090    312221.800000      -145.518600       708.605400       -19.100150       679.273300        98.832630       702.284900      -144.252400        59.971410        -0.241014
1643124126.0000    308360.600000       -36.758900    311507.100000        82.946690    311519.600000      -156.683400       709.979800       -30.144540       681.383700        87.729300       704.761800      -155.236100        59.967470         0.182119
1643124127.0000    308737.300000       -48.262630    311694.300000        71.353130    312209.000000      -168.263400       711.120100       -41.809330       681.384800        76.133640       704.924800      -166.989700        59.966980         0.018952
1643124128.0000    308725.500000       -59.538820    311385.300000        60.140220    311755.300000      -179.555400       708.122200       -52.960080       680.427900        65.017770       702.080400      -177.995200        59.967640        -0.343320
1643124129.0000    308749.900000       -71.017340    311831.500000        48.672130    311940.200000       169.036700       710.590000       -64.587390       682.691700        53.289860       705.702900       170.329700        59.967590        -0.069928
1643124130.0000    308778.400000       -82.413090    311778.900000        37.292740    311854.300000       157.640600       707.573800       -75.775440       679.908500        42.107400       702.613000       159.190100        59.970840        -0.017189
1643124131.0000    308334.800000       -94.008960    311401.000000        25.697370    311433.300000       146.052900       709.067200       -87.488380       681.418400        30.422620       704.075900       147.514800        59.964160        -0.215087
1643124132.0000    308350.600000      -106.280200    311487.500000        13.392640    311649.900000       133.774400       710.582800       -99.840630       682.233600        18.046480       705.152000       135.078900        59.964610        -0.209508
1643124133.0000    308542.300000      -119.138300    311409.800000         0.545553    311660.500000       120.881700       712.455500      -112.690800       684.746000         5.388944       705.589000       122.363800        59.962830        -0.134289
1643124134.0000    308250.500000      -132.768200    311538.700000       -13.055000    311441.900000       107.332200       710.303500      -126.259700       683.098600        -8.440212       706.151000       108.706900        59.960490        -0.054488
1643124135.0000    308624.100000      -147.001800    311688.000000       -27.335540    311913.600000        93.039690       711.207400      -140.543700       683.352100       -22.676660       706.377700        94.407080        59.960340         0.131192
1643124136.0000    308660.300000      -161.418300    311813.000000       -41.768050    312067.000000        78.626640       712.234200      -155.010600       683.413700       -37.170240       707.253700        79.828940        59.958890        -0.392442
1643124137.0000    308632.800000      -175.518400    311575.000000       -55.812370    311684.900000        64.522460       711.961400      -169.066700       684.209700       -51.187080       706.879600        65.903050        59.962310         0.144155
1643124138.0000    308999.300000       171.054800    311929.500000       -69.270800    312179.400000        51.076450       712.235800       177.398100       683.608000       -64.694120       706.307400        52.306900        59.966000        -0.163604
1643124139.0000    308512.800000       158.279300    311596.900000       -82.015850    311628.900000        38.342590       710.939700       164.759600       684.093400       -77.339970       706.318900        39.769970        59.969720         0.363480
1643124140.0000    308704.900000       145.702600    311681.800000       -94.596700    311780.900000        25.746370       711.689000       152.093100       683.368000       -89.987270       706.266500        27.054210        59.967340         0.057919
1643124141.0000    308360.200000       133.679700    311555.200000      -106.644600    311675.500000        13.745350       710.737800       140.192300       683.208100      -101.974800       706.106600        15.136120        59.965290        -0.330106
1643124142.0000    308758.200000       121.913000    311727.500000      -118.379200    311807.100000         1.960979       711.006700       128.315000       683.997100      -113.822800       706.018400         3.292999        59.966540        -0.010239
1643124143.0000    308938.500000       110.748100    311756.300000      -129.558200    311971.600000        -9.236049       710.608800       117.157600       682.620100      -124.840200       704.573500        -7.853530        59.969360         0.075580
1643124144.0000    308747.000000       100.250600    311676.900000      -140.085100    311979.600000       -19.730020       710.532300       106.708600       682.901400      -135.388700       704.893600       -18.346810        59.971680         0.055695
1643124145.0000    308670.700000        90.153870    311564.000000      -150.167700    311818.500000       -29.827140       712.557700        96.470990       684.779800      -145.635900       707.431500       -28.551320        59.973090         0.403869
1643124146.0000    308567.100000        80.536060    311399.300000      -159.831900    311896.800000       -39.479100       714.125900        86.782300       684.699600      -155.306300       708.202300       -38.326860        59.974810         0.091671
1643124147.0000    308899.300000        70.953710    311747.000000      -169.392000    312139.200000       -49.045800       712.846300        77.218480       684.656500      -164.819900       706.860800       -47.860030        59.973670         0.105794
1643124148.0000    308654.200000        61.563240    311573.500000      -178.838400    312187.500000       -58.456520       714.020400        67.764230       684.062900      -174.257400       706.791800       -57.370070        59.974180        -0.291959
1643124149.0000    308607.500000        52.494780    311624.100000       172.152800    311914.400000       -67.475980       712.841500        58.881050       684.690300       176.772600       707.710000       -66.181050        59.976240         0.223597
1643124150.0000    309066.700000        44.035150    311916.800000       163.693600    312281.800000       -75.962220       714.108700        50.246300       686.184300       168.188500       708.552400       -74.790730        59.979210         0.206468
1643124151.0000    309084.000000        36.441500    311850.400000       156.138900    312076.100000       -83.549920       712.060200        42.735690       684.619300       160.744200       705.866900       -82.239900        59.980200        -0.024484
1643124152.0000    309122.700000        29.474980    312062.300000       149.146700    312323.000000       -90.501950       712.159600        35.742530       683.938800       153.682900       706.445700       -89.336930        59.981780        -0.009725
1643124153.0000    308699.200000        22.997100    311621.100000       142.729100    311615.100000       -96.950490       711.719200        29.358310       684.613100       147.345400       706.152000       -95.589930        59.980870        -0.136130
1643124154.0000    308711.300000        17.166600    311808.600000       136.829900    312043.000000      -102.788600       712.119400        23.500970       684.039600       141.355500       707.147800      -101.561200        59.979840        -0.356616
1643124155.0000    308726.400000        12.138690    311511.100000       131.795200    311911.700000      -107.868100       712.381000        18.628370       684.202900       136.582100       706.374600      -106.440900        59.988190        -0.019111
1643124156.0000    308939.600000         7.847603    311763.500000       127.533200    312013.400000      -112.140100       708.952900        14.279570       681.187600       132.271800       702.930600      -110.730000        59.988110         0.105339
1643124157.0000    309069.900000         3.951109    311901.700000       123.621700    312224.400000      -116.041600       709.958100        10.331360       681.530000       128.248300       703.938700      -114.773400        59.990990         0.283538
1643124158.0000    308947.600000         0.594050    311786.600000       120.272400    312066.200000      -119.395800       711.408900         6.964096       683.576500       124.925700       705.937100      -118.036400        59.990550        -0.187943
1643124159.0000    308914.500000        -1.879262    311834.600000       117.828000    311946.600000      -121.840000       709.341100         4.547636       681.681700       122.484700       703.404900      -120.477900        59.993010         0.037922
1643124160.0000    309012.500000        -3.589736    311869.300000       116.074300    312209.200000      -123.583400       711.928000         2.725655       683.257200       120.710800       705.384500      -122.357800        59.995410        -0.205042
1643124161.0000    308797.700000        -4.556242    311618.900000       115.115000    311947.100000      -124.551300       711.049400         1.787216       682.067700       119.777200       704.491300      -123.282800        59.997550        -0.084697
1643124162.0000    308890.300000        -5.105770    311872.900000       114.579400    312039.000000      -125.068000       710.964900         1.185077       682.747000       119.098100       705.500000      -123.863300        59.997870        -0.144251
1643124163.0000    308460.100000        -5.178812    311420.100000       114.467300    311790.100000      -125.166100       712.381700         1.114510       683.170000       119.064400       706.019000      -123.962500        60.000720         0.002988
1643124164.0000    308734.400000        -5.180242    311680.500000       114.476400    312006.200000      -125.164000       712.420800         1.107882       683.933000       119.072200       706.139500      -123.953300        59.999840         0.110168
1643124165.0000    308629.800000        -5.197379    311474.300000       114.465700    311838.900000      -125.194700       712.151700         1.123825       683.305900       119.224200       704.646100      -123.867600        59.997600         0.131288
1643124166.0000    308582.500000        -5.556694    311283.900000       114.116000    311652.300000      -125.569200       713.004600         0.820654       684.351000       118.885800       705.473000      -124.202700        59.997080         0.117352
1643124167.0000    308399.300000        -6.554604    311557.000000       113.124200    311682.200000      -126.494000       713.008400        -0.161662       684.309900       117.748700       707.254600      -125.228200        59.998020        -0.089115
1643124168.0000    308822.400000        -7.755176    311876.700000       111.908000    312118.900000      -127.718200       710.678200        -1.418055       682.312500       116.495700       705.080000      -126.515400        59.995750        -0.075088
1643124169.0000    308743.300000        -9.693408    311771.800000       110.001100    311885.000000      -129.643600       710.663000        -3.308861       683.093200       114.617100       705.843900      -128.347300        59.995610         0.143976
1643124170.0000    308297.000000       -12.238890    311332.600000       107.429000    311568.900000      -132.200700       710.416600        -5.596594       681.511000       112.236800       705.322300      -130.751200        59.989820         0.172046
1643124171.0000    307999.600000       -15.488220    311294.800000       104.243900    311112.800000      -135.375400       710.039300        -8.705451       683.827000       109.023700       707.282700      -133.725100        59.989930        -0.080531
1643124172.0000    308332.300000       -19.383950    311478.800000       100.308000    311546.400000      -139.316300       710.947900       -12.805570       683.484400       105.043100       706.539200      -137.833500        59.985810        -0.169195
1643124173.0000    308311.200000       -24.198770    311376.000000        95.547960    311236.800000      -144.115700       710.071400       -17.586900       684.009900       100.281100       706.068200      -142.535600        59.983430        -0.052152
1643124174.0000    308376.300000       -30.012880    311253.500000        89.669650    311507.800000      -149.993100       713.981800       -23.703180       686.151100        94.321110       707.749900      -148.635900        59.982680         0.088010
1643124175.0000    308242.600000       -36.639100    311281.400000        83.040600    311463.000000      -156.596600       713.097200       -30.157230       684.350800        87.809620       707.151400      -155.251600        59.976710        -0.276504
1643124176.0000    308579.300000       -44.103490    311431.600000        75.607660    311552.600000      -164.076000       713.401300       -37.837700       685.290700        80.139710       707.287200      -162.841600        59.976130        -0.435248
1643124177.0000    308647.700000       -51.852390    311808.200000        67.785550    312109.300000      -171.810800       713.644200       -45.575480       684.785200        72.248370       708.835100      -170.710600        59.978030        -0.317069
1643124178.0000    308569.400000       -59.836320    311341.500000        59.846550    311651.000000      -179.833400       714.455400       -53.582760       686.310600        64.462850       708.089100      -178.579800        59.980810         0.450276
1643124179.0000    308635.900000       -68.636890    311646.300000        51.072660    311695.600000       171.416300       714.365700       -62.423270       686.465100        55.529170       708.979200       172.562600        59.976260         0.260775
