Terminal: LT 500  ACARAU III - PECEM II CL1
Tensão base: 500 kV
SOC inicial: 1643124120
SOC final: 1643124179
Taxa: 1 fasores/s
Total de frames faltantes: - 

Tempo_(SOC)           VA_mod_(V)     VA_ang_(graus)     VB_mod_(V)     VB_ang_(graus)     VC_mod_(V)     VC_ang_(graus)     IA_mod_(A)     IA_ang_(graus)     IB_mod_(A)     IB_ang_(graus)     IC_mod_(A)     IC_ang_(graus)     Frequência        Delta_Freq     Faltante
1643124120.0000    311518.700000       -22.319860    312757.300000      -142.250400    311724.100000        97.577960       106.553600       -56.262340       105.331600      -175.113300       107.310100        65.627480        59.975060        -0.016708
1643124121.0000    311454.800000       -31.341740    312720.300000      -151.273900    311676.400000        88.553760       106.507100       -65.292930       105.490800       175.396700       107.266600        55.929960        59.973430        -0.029297
1643124122.0000    311467.200000       -40.773440    312722.300000      -160.702800    311692.500000        79.119380       106.432900       -74.551870       105.914500       166.289400       107.466300        47.139430        59.973730         0.027008
1643124123.0000    311492.800000       -50.751550    312794.800000      -170.692200    311688.700000        69.130650       106.938200       -84.477700       105.499800       156.616300       108.136400        37.007430        59.971160         0.005493
1643124124.0000    311433.300000       -61.135430    312775.900000       178.922800    311637.300000        58.738960       106.536000       -96.131350       105.070000       145.297200       107.353000        25.736380        59.971380         0.010757
1643124125.0000    311449.500000       -71.711560    312599.800000       168.358800    311631.800000        48.197100       107.792500      -105.978700       107.120800       134.338700       107.842500        15.086660        59.969990        -0.002518
1643124126.0000    311464.200000       -82.870460    312657.300000       157.181300    311572.100000        37.021610       107.476800      -116.970100       106.670300       124.288900       108.075900         4.546618        59.968800         0.013504
1643124127.0000    311393.600000       -94.439840    312692.900000       145.620900    311588.900000        25.447110       108.197600      -128.292300       106.863200       112.488900       109.408500        -6.880242        59.966220        -0.029755
1643124128.0000    311445.100000      -105.948800    312665.000000       134.097600    311545.200000        13.939590       107.314200      -140.586300       107.208600       100.732200       108.639400       -19.251830        59.969330        -0.004120
1643124129.0000    311477.300000      -117.032900    312703.600000       123.017200    311584.300000         2.855953       107.186300      -150.960600       106.754300        90.345560       108.032400       -29.535480        59.969450        -0.013275
1643124130.0000    311414.400000      -128.513300    312659.700000       111.546800    311569.400000        -8.620571       107.391300      -162.352800       107.275800        78.388150       108.499100       -40.935990        59.966740        -0.048065
1643124131.0000    311386.300000      -140.006600    312706.000000       100.034100    311501.900000       -20.133640       107.489900      -173.870700       107.019800        67.277570       109.233000       -52.563020        59.967340        -0.036621
1643124132.0000    311386.300000      -152.003800    312689.000000        88.050770    311556.700000       -32.125290       108.170300       174.572500       107.055700        55.710400       109.399700       -63.750510        59.965530         0.008240
1643124133.0000    311409.600000      -165.181500    312676.800000        74.876310    311579.300000       -45.294440       108.425000       161.202200       107.270000        41.972370       108.887900       -77.398900        59.962700         0.037537
1643124134.0000    311377.400000      -178.890600    312599.500000        61.176160    311559.400000       -58.995560       108.098200       146.599100       107.332400        27.531440       109.079400       -92.050040        59.961990         0.022202
1643124135.0000    311421.000000       167.022900    312605.200000        47.086030    311570.500000       -73.073410       108.267100       133.190800       107.268800        14.015890       108.881000      -105.569100        59.959650        -0.011444
1643124136.0000    311436.700000       152.361300    312688.400000        32.435630    311652.200000       -87.747310       107.836300       118.436700       106.448000        -0.621100       107.982200      -119.928900        59.960380         0.016479
1643124137.0000    311352.100000       138.549800    312678.900000        18.607120    311524.700000      -101.576500       107.113100       103.513600       106.227800       -14.969990       108.906700      -134.744900        59.961330        -0.037994
1643124138.0000    311426.800000       125.365700    312639.000000         5.425360    311582.000000      -114.739100       107.097400        91.302350       107.227700       -27.549800       108.457100      -147.416400        59.963600        -0.008011
1643124139.0000    311464.500000       112.447600    312649.200000        -7.484410    311628.000000      -127.647000       107.170400        79.023970       106.830200       -40.160940       107.693100      -159.645100        59.963810        -0.053558
1643124140.0000    311392.100000       100.096500    312602.900000       -19.841740    311560.800000      -140.006900       107.610300        66.123600       107.033800       -52.776280       109.057500      -172.286600        59.965050        -0.037537
1643124141.0000    311328.200000        87.935950    312670.000000       -31.991810    311572.400000      -152.182900       107.625900        54.098630       106.564200       -65.038090       108.251200       175.512900        59.966720        -0.052185
1643124142.0000    311468.200000        76.343910    312775.500000       -43.598330    311642.400000      -163.775200       106.412400        42.942490       105.705900       -75.911160       107.993000       164.279600        59.968700         0.016022
1643124143.0000    311495.800000        65.050530    312673.400000       -54.897320    311579.500000      -175.055300       106.247500        30.699720       106.387600       -88.253880       108.006700       151.793200        59.969510        -0.016251
1643124144.0000    311461.000000        54.495010    312700.700000       -65.438190    311650.600000       174.390400       106.211300        20.314180       105.729500       -98.540260       107.253100       141.591400        59.971430         0.011444
1643124145.0000    311453.900000        44.615180    312757.100000       -75.317480    311650.500000       164.500700       106.133400        11.070710       105.438500      -107.925300       107.053400       132.526700        59.972740        -0.040283
1643124146.0000    311490.800000        34.949530    312707.400000       -84.993910    311603.400000       154.840800       105.467700         0.679941       105.633300      -118.183400       106.762400       121.887200        59.973530        -0.012817
1643124147.0000    311415.900000        25.494010    312631.000000       -94.446480    311570.700000       145.389700       107.018000        -9.258727       106.163900      -128.109700       107.529500       112.272100        59.974470         0.050354
1643124148.0000    311480.800000        15.951560    312725.800000      -103.993600    311586.100000       135.842400       106.341200       -17.868220       105.510300      -136.899600       106.889700       103.301600        59.973520        -0.001831
1643124149.0000    311483.400000         6.803277    312640.500000      -113.139600    311601.800000       126.706500       105.934900       -27.483160       105.852400      -146.823800       107.007800        93.662730        59.975830        -0.013733
1643124150.0000    311399.300000        -1.742819    312679.400000      -121.689200    311578.800000       118.141700       107.393600       -36.327480       106.356900      -155.144800       108.379600        85.132230        59.977060        -0.019226
1643124151.0000    311504.700000        -9.450701    312825.100000      -129.392200    311698.600000       110.427100       106.596300       -43.476810       105.126700      -161.961500       107.495400        78.313100        59.980430        -0.017166
1643124152.0000    311518.000000       -16.237860    312743.900000      -136.173800    311685.200000       103.656300       107.901200       -49.369210       106.198700      -168.560400       107.909000        71.957050        59.982450         0.018539
1643124153.0000    311484.900000       -22.753760    312721.800000      -142.669800    311747.100000        97.154630       107.540900       -56.540890       106.052000      -175.751900       107.381100        65.244950        59.982770         0.034103
1643124154.0000    311592.600000       -28.808860    312798.300000      -148.737800    311793.300000        91.090180       106.489700       -62.183680       105.214100       178.501500       106.659600        59.396940        59.984490         0.019684
1643124155.0000    311562.400000       -33.835840    312857.000000      -153.779600    311744.800000        86.047420       107.312000       -67.720390       105.650100       173.412300       107.340700        54.017800        59.987370         0.035934
1643124156.0000    311450.500000       -38.118920    312734.200000      -158.053800    311651.000000        81.770510       107.938800       -72.325680       107.511700       168.502500       108.753200        49.502640        59.989570         0.032043
1643124157.0000    311498.200000       -41.813640    312747.100000      -161.763300    311603.700000        78.073150       107.103300       -75.997770       106.961800       165.081200       108.314000        45.543510        59.989810        -0.016708
1643124158.0000    311505.000000       -45.409270    312789.900000      -165.343500    311723.300000        74.478420       107.961200       -79.180520       106.689200       161.998400       108.736200        42.514280        59.991270         0.000229
1643124159.0000    311478.700000       -47.985760    312688.600000      -167.929600    311608.800000        71.908970       107.546800       -83.120350       106.517100       158.111100       108.893400        38.272240        59.994030        -0.027008
1643124160.0000    311440.900000       -49.515110    312740.200000      -169.452400    311641.000000        70.368910       108.392600       -84.181120       107.673300       157.183400       108.850600        37.378240        59.997680         0.011444
1643124161.0000    311574.800000       -50.620520    312820.800000      -170.549000    311777.200000        69.277900       107.318100       -84.549840       106.015700       156.514000       107.739500        37.014970        59.998760         0.035477
1643124162.0000    311532.600000       -50.968730    312782.600000      -170.899700    311759.900000        68.926810       106.937200       -85.528520       105.242000       155.615500       107.224600        36.050960        59.999660        -0.026321
1643124163.0000    311467.000000       -50.966610    312764.000000      -170.894300    311716.800000        68.921170       107.749500       -85.850380       106.248300       154.976600       108.045700        36.302550        60.001540        -0.009155
1643124164.0000    311497.400000       -50.961620    312815.500000      -170.894100    311727.700000        68.922400       107.466200       -85.086470       105.637400       155.957200       107.642900        36.508760        59.999760        -0.000229
1643124165.0000    311548.300000       -51.245570    312872.900000      -171.200400    311656.700000        68.622690       105.891200       -86.194820       105.488500       155.342600       108.126000        35.518460        59.998450        -0.001831
1643124166.0000    311487.600000       -51.363000    312743.400000      -171.300000    311638.100000        68.530400       106.927100       -86.213100       105.978600       154.315400       107.800000        35.046480        60.000510         0.053558
1643124167.0000    311501.800000       -52.217490    312748.600000      -172.126600    311805.700000        67.688820       107.395900       -86.672940       105.108400       153.986600       107.068300        34.989740        59.996300         0.033646
1643124168.0000    311486.600000       -53.986710    312781.600000      -173.905500    311778.900000        65.907030       107.412500       -88.977940       105.895600       152.214200       107.555100        32.948180        59.994560        -0.003204
1643124169.0000    311458.800000       -55.749020    312714.500000      -175.687200    311627.900000        64.139930       106.719200       -91.852200       106.033300       149.279300       107.684200        29.642790        59.995240         0.023575
1643124170.0000    311456.800000       -58.359890    312712.900000      -178.287900    311673.200000        61.535290       107.302000       -93.316400       106.046500       147.803900       108.046900        28.225200        59.991890        -0.039368
1643124171.0000    311526.700000       -61.442550    312776.200000       178.631800    311733.500000        58.457620       106.763000       -96.483410       105.608900       144.494900       106.876700        24.861770        59.991160         0.057449
1643124172.0000    311328.100000       -65.216060    312600.000000       174.860700    311573.000000        54.684870       107.401500      -101.964500       105.235900       138.941800       107.968100        19.782280        59.986950        -0.044174
1643124173.0000    311382.300000       -70.118300    312696.300000       169.953400    311613.900000        49.766680       107.529000      -105.867600       106.170100       135.175400       107.946000        16.178790        59.985580         0.018997
1643124174.0000    311604.600000       -75.689940    312876.100000       164.372400    311782.200000        44.199090       104.228700      -109.781300       103.743900       131.458100       105.865100        11.877910        59.983060        -0.015564
1643124175.0000    311406.700000       -82.490130    312710.800000       157.579600    311621.800000        37.398980       107.167600      -117.833400       105.557300       123.208200       108.057100         3.717057        59.979810         0.018539
1643124176.0000    311364.700000       -90.008660    312649.800000       150.070600    311627.500000        29.884200       107.265400      -126.199800       105.534100       114.967700       107.816300        -4.051831        59.979320         0.028839
1643124177.0000    311532.600000       -97.992270    312769.000000       142.068500    311682.700000        21.899600       104.933100      -133.268200       104.280700       108.048400       105.850200       -11.677030        59.977010        -0.010986
1643124178.0000    311557.100000      -105.866300    312747.000000       134.191800    311666.800000        14.031730       105.478300      -141.123100       104.998600       100.186900       106.604000       -19.720210        59.977570         0.003662
1643124179.0000    311376.800000      -114.359400    312618.800000       125.731100    311689.800000         5.548226       107.520700      -149.312500       106.006100        91.379760       107.422900       -27.825470        59.974710         0.021973
