Terminal: LT 500  JANAUBA 3 - IGAPORA III CL6
Tensão base: 500 kV
SOC inicial: 1643124120
SOC final: 1643124179
Taxa: 1 fasores/s
Total de frames faltantes: - 

Tempo_(SOC)           VA_mod_(V)     VA_ang_(graus)     VB_mod_(V)     VB_ang_(graus)     VC_mod_(V)     VC_ang_(graus)     IA_mod_(A)     IA_ang_(graus)     IB_mod_(A)     IB_ang_(graus)     IC_mod_(A)     IC_ang_(graus)     Frequência        Delta_Freq     Faltante
1643124120.0000    310201.700000       -40.444150    309864.900000      -160.479600    308995.400000        79.954860       133.165400        92.098790       154.151600       -21.552160        89.274960      -148.684400        59.974540        -0.015564
1643124121.0000    310177.000000       -49.480810    309857.900000      -169.506100    309009.000000        70.922390       133.317400        83.261550       154.753700       -30.563070        90.043170      -157.793400        59.973170        -0.040741
1643124122.0000    310125.400000       -58.932910    309829.100000      -178.962500    308947.800000        61.460770       133.565200        73.800230       154.600400       -39.873130        89.817670      -167.046300        59.973820         0.051041
1643124123.0000    310100.200000       -68.920460    309787.700000       171.046000    308905.800000        51.476670       133.053300        64.061940       154.888400       -49.643690        89.524730      -176.909600        59.972320         0.035706
1643124124.0000    310151.800000       -79.247890    309847.600000       160.721800    308964.600000        41.148590       133.383200        53.474600       154.159000       -60.043030        89.658880       172.757000        59.971280        -0.009613
1643124125.0000    310056.400000       -89.880740    309777.100000       150.093800    308910.400000        30.511620       133.016900        42.738900       154.425000       -70.756720        89.633540       161.813800        59.969700         0.015564
1643124126.0000    310094.500000      -101.028900    309770.100000       138.937200    308891.400000        19.366530       132.779500        31.721720       154.559300       -81.884220        89.644370       150.918000        59.968050        -0.013275
1643124127.0000    310095.100000      -112.606000    309794.400000       127.363400    308923.800000         7.788882       132.766800        20.028350       154.295800       -93.494880        89.516600       139.446100        59.967190         0.013733
1643124128.0000    310220.400000      -123.998000    309914.400000       115.977200    309053.500000        -3.597939       132.603700         8.330694       153.830000      -105.136200        89.442120       127.504700        59.970870         0.086975
1643124129.0000    310057.000000      -135.183300    309747.100000       104.783100    308856.300000       -14.786840       133.199900        -2.550099       154.897400      -116.335600        90.018420       116.487700        59.968570        -0.003204
1643124130.0000    310101.800000      -146.671800    309775.000000        93.295840    308899.300000       -26.277070       133.775700       -14.229650       155.035700      -127.797600        89.782490       104.860200        59.967460         0.005035
1643124131.0000    310002.200000      -158.158800    309699.200000        81.805270    308802.900000       -37.769180       133.144700       -25.774640       155.032100      -139.115000        89.789090        93.459980        59.965930        -0.076218
1643124132.0000    309971.700000      -170.249200    309633.500000        69.718510    308771.700000       -49.850310       134.156600       -37.375060       155.587500      -151.209000        89.695630        81.541850        59.965890         0.004349
1643124133.0000    310012.800000       176.642400    309673.500000        56.599130    308770.000000       -62.963010       133.788000       -50.765980       154.908200      -164.334800        89.426670        68.315480        59.962890         0.026093
1643124134.0000    310054.600000       163.009600    309722.400000        42.969020    308826.400000       -76.593420       133.125200       -64.459850       154.631200      -178.010400        89.855740        54.923930        59.961070        -0.033188
1643124135.0000    309997.500000       148.846300    309669.300000        28.805130    308762.900000       -90.758610       133.928300       -78.512520       155.450400       167.767300        90.026600        40.668210        59.959480        -0.009384
1643124136.0000    310095.100000       134.984400    309779.300000        14.949170    308885.300000      -104.620800       133.433400       -92.773480       154.706800       153.819900        90.234180        26.554440        59.960770         0.059738          *
1643124137.0000    310040.900000       120.371100    309719.300000         0.337012    308854.500000      -119.231700       134.847900      -106.682100       156.112100       139.557700        90.062330        12.131280        59.962410         0.045319
1643124138.0000    309949.800000       107.107400    309660.500000       -12.924740    308794.900000      -132.497700       134.936300      -119.865800       156.825200       126.237700        90.144260        -0.508717        59.963650         0.017624
1643124139.0000    310038.000000        94.226300    309733.400000       -25.800900    308873.800000      -145.375800       134.855200      -132.911700       155.886700       113.370200        89.798190       -13.679650        59.965350         0.069351
1643124140.0000    309939.000000        81.794690    309624.000000       -38.234160    308769.400000      -157.809600       134.558900      -145.293500       156.574100       101.086600        90.323130       -26.226390        59.964650        -0.022430
1643124141.0000    309959.600000        69.688990    309647.800000       -50.342780    308769.000000      -169.913500       134.922000      -157.279100       155.971700        88.927280        90.418780       -38.541980        59.966400         0.033188
1643124142.0000    309917.700000        58.033710    309606.500000       -61.991980    308759.700000       178.432300       134.880500      -169.034400       156.805900        77.376200        90.309680       -49.839520        59.967630        -0.027466
1643124143.0000    309977.100000        46.826290    309651.300000       -73.202750    308792.200000       167.226700       134.668900      -179.987300       156.181000        66.113780        90.293800       -61.243680        59.970400         0.011215
1643124144.0000    309981.500000        36.266430    309650.300000       -83.753820    308843.200000       156.671100       134.171600       169.374300       155.405700        55.497650        90.585880       -71.942370        59.972350         0.026779
1643124145.0000    309863.600000        26.309000    309526.400000       -93.718050    308686.800000       146.711800       135.070400       159.250200       156.820500        45.715770        90.152670       -81.524870        59.969740        -0.147629
1643124146.0000    309907.000000        16.637730    309590.600000      -103.392600    308728.900000       137.034200       134.852700       149.887900       156.679700        35.999930        90.669600       -91.431080        59.972930        -0.014191
1643124147.0000    309874.100000         7.157144    309618.400000      -112.884300    308680.600000       127.542700       134.938200       140.331700       156.800000        26.431340        90.670120      -100.681300        59.974540         0.061569
1643124148.0000    309926.500000        -2.357763    309702.600000      -122.401400    308699.600000       118.018600       134.415200       130.700700       156.500700        16.899770        89.950700      -110.157800        59.975420         0.082169
1643124149.0000    309975.200000       -11.437490    309725.400000      -131.478000    308765.200000       108.949000       134.809000       121.432700       155.899900         7.892342        90.379330      -119.363400        59.975680         0.031357
1643124150.0000    310055.600000       -20.008400    309776.900000      -140.048800    308848.600000       100.377700       134.996400       112.831600       155.979200        -0.763081        90.392890      -128.041800        59.976970         0.007095
1643124151.0000    310104.700000       -27.623580    309853.800000      -147.668600    308845.900000        92.758460       134.014300       104.805100       155.297800        -8.563167        89.958660      -135.750300        59.980040         0.024490
1643124152.0000    310020.800000       -34.466350    309715.000000      -154.513000    308753.200000        85.922450       134.175000        98.226790       155.774300       -15.513220        90.132490      -142.709100        59.981860         0.005035
1643124153.0000    310099.900000       -40.947220    309790.400000      -160.991600    308824.000000        79.444660       133.827300        91.777500       155.558600       -21.901980        89.991670      -149.489600        59.982290         0.011673
1643124154.0000    310207.300000       -47.003510    309926.400000      -167.050100    308956.900000        73.381840       133.630200        85.635010       155.104300       -27.815930        89.939620      -155.040100        59.985290         0.045547
1643124155.0000    310230.900000       -52.020220    309922.900000      -172.065500    308973.900000        68.370040       133.597400        81.116150       155.599000       -32.849110        89.917680      -160.002000        59.988350         0.088120
1643124156.0000    310175.900000       -56.322070    309894.900000      -176.368900    308928.300000        64.062580       133.752400        76.710590       155.979900       -36.936430        89.844800      -164.473100        59.989550         0.000229
1643124157.0000    310129.500000       -60.059360    309810.000000       179.897900    308887.400000        60.332800       134.435700        73.013880       156.198500       -40.575080        90.245350      -167.766000        59.989260        -0.033875
1643124158.0000    310246.200000       -63.579170    309942.200000       176.373400    308991.200000        56.809220       134.059200        69.478590       155.773500       -44.269020        89.799560      -171.313900        59.991590        -0.014420
1643124159.0000    310278.900000       -66.087840    309978.300000       173.869900    309040.500000        54.298420       133.311700        66.644180       155.290800       -47.131100        89.367180      -174.356200        59.993030        -0.029526
1643124160.0000    310251.500000       -67.695840    309903.700000       172.254500    308950.300000        52.696730       134.493200        65.242650       155.763900       -48.400180        90.171250      -175.564000        59.996860         0.000687
1643124161.0000    310373.100000       -68.774570    310012.800000       171.180100    309067.100000        51.620730       133.842400        64.096610       155.470200       -49.662740        89.997270      -177.052600        59.998010         0.018997
1643124162.0000    310337.800000       -69.187480    309992.200000       170.758900    309015.800000        51.205070       134.400500        64.103450       156.766500       -49.545120        90.150230      -176.951800        59.998550        -0.043716
1643124163.0000    310282.500000       -69.177610    309955.500000       170.770200    308984.600000        51.210980       133.945300        63.847270       155.950100       -49.775350        89.917120      -177.167900        59.999860        -0.062256
1643124164.0000    310303.900000       -69.198380    309978.900000       170.750600    309005.400000        51.190590       134.120100        63.963460       155.618200       -49.864820        89.859160      -177.250700        60.000530         0.030670
1643124165.0000    310364.100000       -69.403260    310070.900000       170.546100    309081.300000        50.980770       133.955300        63.113370       155.204800       -50.453810        89.960540      -177.622500        60.002350         0.239410
1643124166.0000    310170.300000       -69.564740    309901.900000       170.398700    308973.800000        50.823890       134.091400        63.144000       155.903500       -50.419030        90.013510      -177.476400        60.003590         0.174866
1643124167.0000    310234.400000       -70.457450    309869.000000       169.507000    308981.200000        49.942790       134.674100        62.731400       156.022300       -50.923720        90.497440      -178.243700        59.996680        -0.009384
1643124168.0000    310298.700000       -72.059970    309968.900000       167.911900    309102.900000        48.345980       134.366200        60.747740       155.408200       -52.896190        90.035180       179.757200        59.995990         0.039139
1643124169.0000    310240.500000       -73.856490    309870.400000       166.115400    309014.700000        46.549460       133.747700        59.127030       155.848700       -54.705530        89.993890       178.075800        59.994270         0.005493
1643124170.0000    310264.200000       -76.489690    309883.300000       163.484200    309062.200000        43.922290       133.640400        56.487800       154.929200       -57.345010        89.427310       175.334200        59.990130        -0.100021
1643124171.0000    310236.800000       -79.581460    309896.500000       160.390800    309059.200000        40.823230       134.060700        53.276630       155.853800       -60.344870        90.230030       172.483500        59.991920         0.054703
1643124172.0000    310217.800000       -83.451810    309828.200000       156.521000    309001.500000        36.960020       134.727200        49.710930       156.248900       -64.128730        90.719440       168.553100        59.987550        -0.005493
1643124173.0000    310259.200000       -88.266060    309889.300000       151.709500    309069.100000        32.143300       134.278600        44.759960       155.962300       -69.159620        90.182090       163.878400        59.986660         0.058594
1643124174.0000    310111.900000       -93.901660    309772.700000       146.073500    308931.600000        26.502420       134.864500        39.020070       156.295300       -74.834280        90.219520       158.169000        59.981990        -0.093384
1643124175.0000    310220.400000      -100.650100    309867.200000       139.319200    309016.600000        19.753840       134.543600        31.790450       156.228000       -81.605160        90.297210       151.071200        59.981160         0.089035
1643124176.0000    310237.600000      -108.155700    309870.300000       131.818800    309034.600000        12.254400       134.199100        24.612920       156.501000       -89.043730        90.187610       143.813700        59.979650         0.032043
1643124177.0000    310288.600000      -116.149000    309953.600000       123.826800    309141.100000         4.252450       134.097100        16.573210       156.030200       -97.259250        90.110050       135.556000        59.979020         0.081940
1643124178.0000    310256.800000      -124.022000    309920.100000       115.946500    309079.800000        -3.616302       134.190600         8.611090       155.535900      -105.092000        89.607200       128.069500        59.978270         0.058594
1643124179.0000    310154.700000      -132.623300    309820.100000       107.352200    308992.300000       -12.218190       134.593200         0.506824       156.899700      -113.422700        90.049190       119.538000        59.974010        -0.004120
