Terminal: LT 500  ACARAU III - TIANGUA II C1
Tensão base: 500 kV
SOC inicial: 1643124120
SOC final: 1643124179
Taxa: 1 fasores/s
Total de frames faltantes: - 

Tempo_(SOC)           VA_mod_(V)     VA_ang_(graus)     VB_mod_(V)     VB_ang_(graus)     VC_mod_(V)     VC_ang_(graus)     IA_mod_(A)     IA_ang_(graus)     IB_mod_(A)     IB_ang_(graus)     IC_mod_(A)     IC_ang_(graus)     Frequência        Delta_Freq     Faltante
1643124120.0000    311900.500000       -22.312820    312533.600000      -142.260800    311956.800000        97.575860       173.958200        65.790140       168.575000       -53.765380       170.001000      -172.233900        59.974990        -0.013733
1643124121.0000    311843.200000       -31.337740    312486.200000      -151.286600    311885.600000        88.550000       174.158000        57.008240       168.788500       -62.672500       170.926100       178.820200        59.973280        -0.036163
1643124122.0000    311843.100000       -40.768630    312509.900000      -160.712800    311909.500000        79.117900       173.568000        47.547150       168.309200       -71.945290       170.335300       169.362300        59.973320         0.005035
1643124123.0000    311868.600000       -50.749100    312557.000000      -170.703200    311904.900000        69.129620       173.309200        37.611600       168.283700       -81.785850       170.155100       159.434700        59.971500         0.023117
1643124124.0000    311803.200000       -61.130740    312548.300000       178.915000    311856.500000        58.734550       174.013700        27.051370       168.685700       -92.395760       170.745100       148.941400        59.971320        -0.008469
1643124125.0000    311816.800000       -71.707370    312367.500000       168.349700    311838.300000        48.194450       173.865900        16.669570       169.078000      -102.939000       170.754600       138.391300        59.969870        -0.015564
1643124126.0000    311845.500000       -82.865210    312446.900000       157.170500    311785.200000        37.019590       173.431500         5.371596       168.690500      -114.076400       170.921800       127.137800        59.969050         0.030899
1643124127.0000    311807.100000       -94.436570    312446.900000       145.608200    311801.400000        25.443260       173.990100        -6.348168       168.890400      -125.751500       170.672100       115.489100        59.966110        -0.016479
1643124128.0000    311840.000000      -105.948000    312428.300000       134.085900    311753.700000        13.938170       174.309700       -18.028890       169.264600      -137.541100       171.796400       103.669600        59.969310        -0.003891
1643124129.0000    311878.500000      -117.028000    312479.200000       123.005400    311810.700000         2.856125       173.510300       -28.830060       168.651200      -148.565300       170.499000        92.865470        59.969330        -0.005493
1643124130.0000    311791.900000      -128.508200    312415.800000       111.533800    311777.400000        -8.625357       174.178800       -40.406820       169.125700      -160.032400       171.076000        81.630040        59.966870        -0.032730
1643124131.0000    311785.500000      -139.999600    312466.800000       100.024000    311721.700000       -20.136830       173.780600       -51.990050       169.294000      -171.421800       171.126800        69.935250        59.967990        -0.009155
1643124132.0000    311769.300000      -151.998100    312451.800000        88.038500    311767.700000       -32.126430       173.054700       -63.746690       167.933800       176.819900       170.065200        58.175190        59.965290        -0.000687
1643124133.0000    311773.700000      -165.177200    312441.600000        74.866940    311797.300000       -45.296920       172.812300       -76.802120       168.130500       163.770900       170.685000        45.068200        59.963110         0.046463
1643124134.0000    311762.400000      -178.883700    312367.000000        61.166340    311773.400000       -58.996620       174.211500       -90.519590       169.332900       149.904400       171.231300        31.162380        59.961490        -0.010529
1643124135.0000    311794.500000       167.028400    312362.300000        47.076160    311783.200000       -73.077300       173.934200      -104.569300       168.597700       135.905700       170.594600        17.160760        59.960020         0.002289
1643124136.0000    311797.500000       152.367000    312473.400000        32.425900    311882.700000       -87.749760       173.630800      -119.292000       168.704000       121.083300       170.109200         2.511835        59.960470         0.013504
1643124137.0000    311732.700000       138.555200    312459.800000        18.596260    311756.000000      -101.578300       174.451700      -133.511500       169.002100       106.991900       171.737800       -11.685400        59.961880        -0.006409
1643124138.0000    311811.000000       125.373000    312405.800000         5.417462    311797.200000      -114.741600       173.215700      -146.553300       169.142500        93.898880       170.774600       -24.524750        59.963840        -0.008011
1643124139.0000    311853.300000       112.453900    312413.300000        -7.493869    311856.600000      -127.649800       173.251900      -159.307900       168.731300        81.080710       170.399200       -37.494380        59.964270        -0.031815
1643124140.0000    311774.500000       100.100700    312370.800000       -19.852330    311780.900000      -140.008500       174.004500      -171.831100       169.091100        68.681480       170.642300       -49.933240        59.965470        -0.013046
1643124141.0000    311719.600000        87.942760    312440.300000       -32.004590    311793.600000      -152.186300       173.576600       176.124600       168.696900        56.580500       170.457300       -62.024640        59.966500        -0.055389
1643124142.0000    311853.200000        76.347680    312543.300000       -43.610500    311859.900000      -163.778200       172.942300       164.545500       168.006400        44.878890       170.237000       -73.904050        59.968330         0.008926
1643124143.0000    311873.400000        65.054700    312442.800000       -54.909410    311790.800000      -175.055900       173.443500       153.180200       168.838100        33.754410       170.359900       -85.012250        59.969800         0.008011
1643124144.0000    311837.100000        54.499040    312469.100000       -65.450520    311864.900000       174.386700       173.561600       142.491700       168.975500        23.123720       170.616300       -95.646790        59.971290         0.015793
1643124145.0000    311823.400000        44.619340    312527.100000       -75.328230    311875.100000       164.497600       172.769700       132.927300       167.621700        13.286880       170.475900      -105.238200        59.972570        -0.048981
1643124146.0000    311866.100000        34.954260    312489.100000       -85.008830    311809.600000       154.837900       173.377000       123.009100       168.426200         3.493238       170.507900      -115.177900        59.973040        -0.021057
1643124147.0000    311796.000000        25.498210    312396.900000       -94.455540    311798.200000       145.387700       174.029800       113.533200       168.982200        -5.859631       170.641000      -124.704100        59.974140         0.024490
1643124148.0000    311862.500000        15.956180    312483.900000      -104.006300    311823.300000       135.841800       173.315800       103.968000       168.384400       -15.530630       170.609900      -134.204300        59.973300        -0.008698
1643124149.0000    311886.100000         6.806448    312408.900000      -113.152700    311818.200000       126.703400       174.129800        94.624940       169.242700       -24.768420       170.874500      -143.443700        59.975700        -0.010300
1643124150.0000    311802.400000        -1.739008    312442.900000      -121.699300    311787.400000       118.138200       173.853200        86.151630       168.903600       -33.308800       171.621900      -152.047400        59.977140        -0.010071
1643124151.0000    311898.600000        -9.445924    312607.900000      -129.402400    311923.300000       110.424400       173.719100        78.481060       168.352600       -41.087810       170.166700      -159.725600        59.980230        -0.021515
1643124152.0000    311894.100000       -16.233950    312521.200000      -136.183900    311886.000000       103.656400       173.585800        71.891960       168.535300       -47.741570       170.741500      -166.200100        59.982170         0.011902
1643124153.0000    311857.200000       -22.745790    312482.100000      -142.681200    311964.300000        97.150880       173.718800        65.345520       169.005600       -54.271100       170.922200      -172.889000        59.982720         0.035706
1643124154.0000    311977.500000       -28.807160    312581.300000      -148.751100    312007.300000        91.089620       173.538500        59.242470       168.779800       -60.432190       170.130800      -179.084500        59.984370         0.019684
1643124155.0000    311946.200000       -33.831500    312624.200000      -153.788300    311968.800000        86.045520       173.901700        54.072530       168.858800       -65.492100       170.597000       175.951300        59.987500         0.026550
1643124156.0000    311844.600000       -38.113950    312522.000000      -158.064300    311860.500000        81.764530       174.108400        50.011250       169.165000       -69.802190       171.405000       171.661700        59.989430         0.012589
1643124157.0000    311860.900000       -41.807550    312511.700000      -161.774700    311810.600000        78.070970       174.448900        46.082780       169.187600       -73.426280       171.320300       168.062600        59.989870        -0.004578
1643124158.0000    311874.400000       -45.404220    312565.000000      -165.355100    311912.200000        74.475490       173.764400        42.501600       168.626000       -77.063780       171.132900       164.385900        59.991360         0.012589
1643124159.0000    311836.000000       -47.982650    312455.800000      -167.940000    311813.300000        71.905060       175.249000        39.743930       169.631900       -79.679100       171.735200       161.744900        59.994090        -0.018082
1643124160.0000    311819.000000       -49.509910    312519.900000      -169.461400    311869.900000        70.365730       174.825000        38.279770       169.769400       -81.162200       171.541000       160.225400        59.997700         0.007324
1643124161.0000    311950.700000       -50.615180    312582.600000      -170.560200    312002.400000        69.274720       173.973500        37.347160       169.377000       -82.382560       171.106300       159.202100        59.998650         0.030899
1643124162.0000    311902.600000       -50.966930    312556.800000      -170.910600    311961.800000        68.922160       173.973000        36.798230       169.353400       -82.844610       171.099100       158.534000        59.999240        -0.052185
1643124163.0000    311847.600000       -50.960880    312555.600000      -170.906200    311925.800000        68.917190       174.771000        36.749380       169.637700       -82.813850       171.570300       158.559700        60.001580        -0.006638
1643124164.0000    311880.200000       -50.955100    312600.100000      -170.901900    311943.400000        68.919130       174.287100        36.829310       169.240100       -82.824230       171.032700       158.713000        59.999590        -0.020370
1643124165.0000    311910.800000       -51.240300    312668.100000      -171.212200    311889.300000        68.620610       174.646300        36.274990       169.384000       -83.095500       171.521700       158.364500        59.998410        -0.009155
1643124166.0000    311847.500000       -51.356690    312516.900000      -171.309800    311849.000000        68.527110       174.466100        36.336380       169.635000       -83.212390       171.799100       158.256100        60.001050         0.073700
1643124167.0000    311887.200000       -52.215190    312524.600000      -172.137300    312020.700000        67.684010       174.515100        35.836050       169.509400       -83.924580       170.815100       157.359100        59.996150         0.024490
1643124168.0000    311854.400000       -53.983170    312541.000000      -173.915900    311981.100000        65.904720       174.513900        34.018220       169.847200       -85.657420       171.406600       155.845600        59.995110         0.016708
1643124169.0000    311839.800000       -55.744260    312496.200000      -175.698200    311854.400000        64.137880       175.290200        32.053200       170.086700       -87.546700       172.335200       153.598300        59.995470         0.036392
1643124170.0000    311841.700000       -58.356120    312490.600000      -178.298900    311906.400000        61.533580       174.243400        29.686740       169.525700       -90.103990       171.499000       151.386600        59.991990        -0.034561
1643124171.0000    311904.500000       -61.439940    312548.100000       178.622300    311966.500000        58.454550       174.493100        26.335050       169.496400       -93.234490       171.063600       148.002000        59.991150         0.054932
1643124172.0000    311701.600000       -65.213070    312345.000000       174.848400    311783.700000        54.678640       175.800500        22.402520       170.246700       -97.284000       172.521600       143.996900        59.986930        -0.042801
1643124173.0000    311748.800000       -70.113280    312481.300000       169.942400    311837.300000        49.765220       174.588600        17.626720       169.651300      -101.938900       171.592600       139.592800        59.985460         0.007782
1643124174.0000    311994.500000       -75.683930    312639.700000       164.361000    312015.100000        44.198330       173.534500        12.077340       168.045900      -107.409400       170.325700       133.828800        59.983280        -0.014877
1643124175.0000    311777.900000       -82.486140    312480.700000       157.566100    311844.200000        37.394760       175.009800         5.255733       169.794500      -114.205400       171.339500       127.093800        59.979780         0.017624
1643124176.0000    311732.000000       -90.005790    312428.700000       150.059600    311850.300000        29.881150       175.034400        -2.189086       169.962600      -121.916500       171.693600       119.253500        59.979370         0.021057
1643124177.0000    311902.800000       -97.986820    312550.300000       142.056100    311898.800000        21.895370       174.271800       -10.534510       169.338500      -130.030700       171.551700       111.534900        59.976810        -0.015564
1643124178.0000    311919.000000      -105.864400    312521.800000       134.181100    311893.700000        14.026070       173.944600       -18.256200       170.136900      -137.798000       171.639800       103.502400        59.977910         0.018997
1643124179.0000    311770.400000      -114.356500    312408.000000       125.721300    311897.000000         5.545231       174.742600       -26.518440       169.864400      -146.049700       171.229200        95.375310        59.974890         0.027008
