Terminal: LT 765  IVAIPORA FUR - ITABERA C3
Tensão base: 765 kV
SOC inicial: 1643124120
SOC final: 1643124179
Taxa: 1 fasores/s
Total de frames faltantes: - 

Tempo_(SOC)           VA_mod_(V)     VA_ang_(graus)     VB_mod_(V)     VB_ang_(graus)     VC_mod_(V)     VC_ang_(graus)     IA_mod_(A)     IA_ang_(graus)     IB_mod_(A)     IB_ang_(graus)     IC_mod_(A)     IC_ang_(graus)     Frequência        Delta_Freq     Faltante
1643124120.0000    449210.400000        16.815830    451646.400000       136.804600    452222.600000      -102.976300       283.104600        35.931420       307.799900       157.157700       293.267400       -82.646500        59.974730         0.066630
1643124121.0000    449198.500000         7.712374    451623.700000       127.726000    452031.800000      -112.069500       283.278100        26.729300       306.527100       148.073600       291.881000       -92.061680        59.973630        -0.150104
1643124122.0000    449003.900000        -1.700994    451371.500000       118.288800    451985.900000      -121.500800       283.416800        17.250590       309.110700       138.354200       294.574000      -101.201100        59.972780        -0.157192
1643124123.0000    449228.400000       -11.685360    451655.600000       108.327500    452071.200000      -131.465800       285.569400         7.456020       309.667300       128.792300       294.672700      -111.150800        59.971580        -0.103501
1643124124.0000    449258.100000       -21.871580    451654.100000        98.133000    452158.100000      -141.661100       285.137100        -2.664504       309.623700       118.546500       294.996800      -121.287700        59.971840         0.003134
1643124125.0000    449095.400000       -32.584210    451581.300000        87.408620    452114.200000      -152.369100       284.297600       -13.320750       309.531800       107.888100       294.268800      -131.837900        59.969890        -0.058088
1643124126.0000    449061.700000       -43.824710    451560.400000        76.186460    451964.900000      -163.597000       284.235500       -24.884190       308.328200        96.513890       293.060400      -143.479100        59.968450         0.114114
1643124127.0000    449206.700000       -55.405120    451591.400000        64.591340    452145.200000      -175.200200       281.900700       -36.083190       307.618900        85.187450       292.366500      -154.531300        59.966620        -0.028388
1643124128.0000    449316.400000       -66.593080    451643.900000        53.405340    452211.000000       173.608400       284.198500       -47.483980       308.091500        73.610270       294.389300      -166.254700        59.968540        -0.107158
1643124129.0000    449141.300000       -78.132340    451636.800000        41.868430    452098.800000       162.089300       282.617200       -58.901610       306.924200        62.464530       291.714800      -177.464400        59.969170         0.147905
1643124130.0000    449447.100000       -89.453130    451856.800000        30.556770    452297.100000       150.762200       284.078900       -70.276260       307.908300        50.999210       293.209700       171.057700        59.971160         0.174410
1643124131.0000    448920.800000      -101.059200    451398.900000        18.946680    451839.200000       139.163500       284.387700       -82.295620       308.416200        39.159240       293.361200       159.132400        59.965990        -0.104612
1643124132.0000    448858.300000      -113.359100    451405.500000         6.638339    451859.100000       126.865400       284.164700       -94.608470       308.528100        26.898740       293.446600       146.932600        59.965690        -0.021124
1643124133.0000    448999.300000      -126.298400    451512.200000        -6.294228    451955.500000       113.925700       282.450700      -107.227300       307.349500        14.109720       292.112800       134.273100        59.963400         0.022018
1643124134.0000    448815.400000      -139.843400    451373.100000       -19.843470    451820.300000       100.381300       284.397400      -121.108400       308.007000         0.517290       292.097900       120.356800        59.960910         0.007755
1643124135.0000    449086.400000      -154.113200    451554.900000       -34.119140    452082.100000        86.101460       283.454200      -135.043400       308.108300       -13.688540       292.877200       106.442600        59.960590         0.066261
1643124136.0000    449151.100000      -168.585100    451632.800000       -48.582610    452109.900000        71.634600       282.001000      -149.548100       307.045600       -28.154230       291.437700        91.990180        59.959640        -0.059908
1643124137.0000    449263.200000       177.343600    451674.200000       -62.653990    452168.900000        57.554920       282.316700      -163.750100       306.409500       -42.390780       291.426000        77.632380        59.961500         0.049676
1643124138.0000    449447.600000       163.907900    451857.100000       -76.087410    452344.900000        44.119710       281.952800      -177.028500       306.626200       -55.678960       291.415000        64.454210        59.964280        -0.136426
1643124139.0000    449211.700000       151.173800    451705.400000       -88.827170    452185.100000        31.392550       283.334200       169.954400       307.001200       -68.694580       292.004400        51.351540        59.966370         0.025884
1643124140.0000    449283.300000       138.570600    451724.600000      -101.420400    452172.000000        18.788320       282.667400       157.563900       306.612000       -81.181950       292.100800        38.889820        59.966620         0.131013
1643124141.0000    449182.300000       126.556600    451663.200000      -113.450400    452196.800000         6.772179       282.029000       145.306500       307.107800       -93.240510       291.038100        26.832810        59.967160        -0.077851
1643124142.0000    449177.200000       114.790500    451620.100000      -125.210000    452116.800000        -4.994732       282.431300       133.903300       306.470300      -104.815200       291.790300        15.252630        59.967930         0.130971
1643124143.0000    449421.900000       103.626800    451827.900000      -136.364900    452296.600000       -16.159400       282.400800       122.779800       306.555500      -115.937000       292.074200         4.159845        59.970530         0.130655
1643124144.0000    449328.400000        93.135940    451762.400000      -146.871000    452315.600000       -26.655970       282.485400       112.080800       307.565300      -126.637000       292.499000        -6.359968        59.970690         0.081949
1643124145.0000    449225.300000        82.995480    451616.000000      -157.007200    452168.600000       -36.797310       281.915200       101.897300       306.609200      -136.809200       291.711800       -16.658020        59.971950         0.085144
1643124146.0000    449190.500000        73.354720    451524.100000      -166.655200    452135.500000       -46.449210       282.129500        92.017940       307.438400      -146.782600       292.869400       -26.467650        59.974270         0.103003
1643124147.0000    449206.300000        63.786350    451644.800000      -176.218200    452188.000000       -56.002050       282.706800        82.894870       307.671500      -155.817200       292.834700       -35.648240        59.973450         0.034642
1643124148.0000    449114.500000        54.393800    451583.300000       174.377100    452180.800000       -65.398690       282.845800        73.126680       308.680600      -165.654400       293.864100       -45.195100        59.974370        -0.066738
1643124149.0000    449175.300000        45.352520    451636.800000       165.342800    452191.500000       -74.435670       283.609000        64.110570       308.396400      -174.537900       293.063800       -54.377110        59.975650         0.079021
1643124150.0000    449379.800000        36.827650    451792.600000       156.815200    452378.400000       -82.967930       281.571600        55.981810       306.294100       177.168700       291.498200       -62.551980        59.977900         0.013022
1643124151.0000    449462.200000        29.300480    451841.300000       149.302800    452348.900000       -90.490550       282.657800        48.495190       306.509900       169.670100       292.401200       -70.190590        59.980850         0.009623
1643124152.0000    449491.400000        22.327880    451919.600000       142.328900    452421.100000       -97.458150       282.762900        41.479740       307.456800       162.748300       292.716100       -77.094520        59.982060         0.002234
1643124153.0000    449288.400000        15.896500    451764.300000       135.908100    452162.900000      -103.878600       284.174600        34.639810       307.674800       155.985800       292.901600       -84.064440        59.982100        -0.042782
1643124154.0000    449252.600000        10.061910    451757.900000       130.053600    452282.900000      -109.721700       284.196700        28.833150       308.949000       150.227400       293.380600       -89.653740        59.981830        -0.315622
1643124155.0000    449403.900000         4.976361    451824.300000       124.972500    452364.000000      -114.815000       282.551300        24.093410       307.093500       145.193400       292.751300       -94.511600        59.988250         0.091064
1643124156.0000    449485.700000         0.828273    451898.600000       120.833500    452372.100000      -118.958300       285.971400        19.676400       310.146700       140.981300       295.441300       -98.917390        59.988450         0.000831
1643124157.0000    449428.800000        -3.103277    451838.700000       116.896200    452347.500000      -122.895200       284.873900        15.994410       309.428800       137.149700       294.961900      -102.622400        59.990220         0.065850
1643124158.0000    449466.000000        -6.529316    451869.900000       113.471900    452405.200000      -126.317800       283.267400        12.503350       308.081300       133.725600       293.209600      -106.083000        59.991130        -0.206673
1643124159.0000    449411.900000        -8.923344    451856.900000       111.087600    452291.200000      -128.706000       285.106800        10.115530       309.012300       131.423700       294.260700      -108.552700        59.993580        -0.065710
1643124160.0000    449465.400000       -10.698880    451912.400000       109.299900    452427.900000      -130.485000       284.298900         8.387738       308.665400       129.642500       293.623600      -110.232200        59.996420        -0.060499
1643124161.0000    449365.400000       -11.609910    451773.400000       108.390600    452270.400000      -131.398300       285.267700         7.212842       309.699600       128.427200       295.271100      -111.438600        59.998250        -0.011064
1643124162.0000    449264.500000       -12.181450    451737.300000       107.823300    452190.300000      -131.962200       285.190600         6.768004       309.097100       128.048700       294.374600      -111.889000        59.998140        -0.089033
1643124163.0000    449050.300000       -12.263550    451523.900000       107.730000    452042.300000      -132.052500       285.494800         6.269132       310.149000       127.567000       295.015600      -112.249100        60.000770         0.042062
1643124164.0000    449174.000000       -12.266510    451675.200000       107.728000    452164.300000      -132.049900       285.510400         6.568500       310.193700       127.867600       295.275400      -111.954900        59.999360        -0.110596
1643124165.0000    449160.400000       -12.270800    451668.000000       107.733100    452110.100000      -132.048900       285.745000         6.524965       310.478600       127.746900       295.580500      -112.075200        59.998550         0.004267
1643124166.0000    449034.400000       -12.665240    451414.800000       107.335600    451943.100000      -132.457900       285.131500         6.231852       309.513600       127.419500       295.231500      -112.446300        59.997170        -0.056658
1643124167.0000    448990.600000       -13.677190    451562.900000       106.325300    451979.800000      -133.449200       284.608700         5.127411       308.564800       126.456800       293.662600      -113.458400        59.998200         0.075763
1643124168.0000    449096.300000       -14.816410    451656.500000       105.185900    452081.100000      -134.590500       285.738800         4.291621       310.628800       125.578400       295.505900      -114.217000        59.996660         0.071404
1643124169.0000    449086.700000       -16.768780    451516.200000       103.241700    451936.900000      -136.549100       285.474400         2.297382       309.687900       123.607900       294.325900      -116.257700        59.994700         0.083205
1643124170.0000    449013.300000       -19.285830    451446.500000       100.715800    451941.700000      -139.073100       286.373800        -0.533773       310.314000       120.812700       295.466100      -119.037700        59.991730         0.101522
1643124171.0000    448943.000000       -22.524580    451474.500000        97.480290    451902.200000      -142.297500       285.390900        -3.876151       309.316500       117.526300       294.331900      -122.445600        59.990130        -0.078005
1643124172.0000    448968.700000       -26.439830    451447.400000        93.555280    451958.400000      -146.224100       285.898400        -7.590456       310.212600       113.795700       294.860100      -126.109200        59.987540        -0.106744
1643124173.0000    448989.400000       -31.211990    451456.300000        88.797800    451876.000000      -150.991500       287.214800       -12.540340       310.335300       108.847200       295.471100      -131.255100        59.985030        -0.080951
1643124174.0000    448802.300000       -37.133350    451281.800000        82.863130    451790.700000      -156.918000       285.429800       -18.404510       309.755500       102.862000       294.997800      -137.014800        59.981800         0.071788
1643124175.0000    448959.900000       -43.748610    451426.700000        76.259080    451871.300000      -163.528000       284.743400       -25.079130       309.439500        96.283930       294.159500      -143.661500        59.979840         0.015665
1643124176.0000    448938.000000       -51.231450    451357.900000        68.782470    451778.000000      -171.014600       284.827300       -32.400210       308.441000        88.864600       294.483600      -151.102900        59.978300        -0.116331
1643124177.0000    449113.400000       -58.983430    451584.400000        61.007670    452114.300000      -178.771700       284.575200       -40.204670       309.713700        81.156870       294.113600      -158.633500        59.978360        -0.034266
1643124178.0000    449013.800000       -66.976680    451418.500000        53.022620    451953.000000       173.233400       284.896100       -48.266380       309.382600        72.920380       295.148700      -166.962100        59.978960         0.301859
1643124179.0000    448964.200000       -75.776760    451449.100000        44.232170    451872.200000       164.446700       284.836800       -56.956060       308.382900        64.369740       293.840700      -175.628800        59.975980         0.136372
