Terminal: LT 765  IVAIPORA FUR - ITABERA C2
Tensão base: 765 kV
SOC inicial: 1643124120
SOC final: 1643124179
Taxa: 1 fasores/s
Total de frames faltantes: - 

Tempo_(SOC)           VA_mod_(V)     VA_ang_(graus)     VB_mod_(V)     VB_ang_(graus)     VC_mod_(V)     VC_ang_(graus)     IA_mod_(A)     IA_ang_(graus)     IB_mod_(A)     IB_ang_(graus)     IC_mod_(A)     IC_ang_(graus)     Frequência        Delta_Freq     Faltante
1643124120.0000    451106.100000        16.952190    452713.300000       136.929800    452485.200000      -102.822100       300.380200        34.669790       323.935900       156.821500       316.066300       -83.371950        59.974370         0.083064
1643124121.0000    451103.700000         7.851545    452676.200000       127.850100    452327.300000      -111.916100       300.853900        25.454280       322.376300       147.702500       315.173400       -92.873100        59.973420        -0.160863
1643124122.0000    450910.700000        -1.558251    452430.800000       118.416200    452262.800000      -121.344700       300.905000        15.967790       325.161300       137.873800       317.723200      -102.056500        59.972880        -0.169245
1643124123.0000    451131.300000       -11.544200    452721.000000       108.456300    452357.800000      -131.309200       303.309200         6.205492       325.518000       128.391100       317.795500      -111.958800        59.972000        -0.118985
1643124124.0000    451154.800000       -21.731060    452707.800000        98.258830    452437.900000      -141.504500       302.875000        -3.881860       326.101400       118.231700       318.108600      -122.087300        59.971900         0.005532
1643124125.0000    450986.900000       -32.442080    452627.500000        87.537870    452378.300000      -152.211500       302.091600       -14.611430       325.731200       107.585300       317.437200      -132.656400        59.971180         0.031359
1643124126.0000    450955.300000       -43.682820    452621.400000        76.314160    452250.400000      -163.442000       301.977600       -26.222490       324.312000        96.165250       316.145000      -144.295700        59.968850         0.137947
1643124127.0000    451100.600000       -55.264100    452648.900000        64.717740    452418.800000      -175.042900       299.529400       -37.376450       323.654300        84.783390       314.972000      -155.347500        59.967730         0.017703
1643124128.0000    451195.100000       -66.449090    452703.700000        53.533690    452487.900000       173.767500       301.788400       -48.710170       324.264800        73.185860       317.634100      -167.019300        59.969560        -0.114065
1643124129.0000    451035.700000       -77.995750    452689.900000        41.991170    452388.400000       162.238500       300.107100       -60.184840       322.807700        62.101250       314.693000      -178.263600        59.968630         0.187901
1643124130.0000    451339.100000       -89.312930    452911.500000        30.685690    452568.200000       150.919500       301.504600       -71.537620       324.243200        50.643630       316.268500       170.275500        59.971410         0.112258
1643124131.0000    450822.800000      -100.916900    452452.700000        19.074490    452130.000000       139.319000       302.318200       -83.531580       324.494200        38.719100       316.631700       158.269100        59.966040        -0.117944
1643124132.0000    450770.700000      -113.220700    452464.800000         6.765339    452141.700000       127.017700       301.956000       -95.837550       325.007500        26.438220       316.597800       146.131700        59.965390         0.024984
1643124133.0000    450899.700000      -126.158800    452569.700000        -6.167155    452216.900000       114.081800       299.601500      -108.447500       323.549100        13.727530       315.214800       133.515300        59.962970        -0.064908
1643124134.0000    450705.300000      -139.703200    452423.400000       -19.718860    452096.300000       100.536500       302.401600      -122.383500       324.229900         0.142377       315.246800       119.559700        59.960590        -0.019554
1643124135.0000    450993.800000      -153.975400    452611.700000       -33.993320    452353.900000        86.253720       300.958300      -136.293700       324.406100       -14.054530       315.708800       105.690800        59.960690         0.083301
1643124136.0000    451040.500000      -168.443200    452689.200000       -48.457770    452396.900000        71.790540       299.511600      -150.788400       323.070600       -28.473160       314.280200        91.221500        59.959400        -0.138507
1643124137.0000    451168.500000       177.485100    452729.700000       -62.525800    452446.800000        57.711330       299.847700      -165.006200       322.011600       -42.767880       314.396200        76.798240        59.961670        -0.043370
1643124138.0000    451355.100000       164.044300    452922.300000       -75.963630    452621.800000        44.273300       299.576100      -178.235300       322.450600       -56.010550       314.507200        63.650710        59.965020         0.003552
1643124139.0000    451101.900000       151.312500    452760.400000       -88.702610    452464.900000        31.546740       300.657800       168.746000       323.275600       -69.041370       315.255600        50.527440        59.966620         0.072052
1643124140.0000    451183.500000       138.710500    452803.400000      -101.295100    452456.900000        18.944640       300.250600       156.276400       322.828100       -81.511050       315.380900        38.076970        59.966590         0.119869
1643124141.0000    451085.500000       126.693500    452730.300000      -113.326500    452471.400000         6.925317       299.722300       144.018000       323.275300       -93.591450       314.517600        26.110530        59.967520         0.022481
1643124142.0000    451074.300000       114.932500    452674.300000      -125.081500    452385.900000        -4.838603       299.996900       132.641600       322.621600      -105.227000       315.176900        14.435820        59.967940         0.067849
1643124143.0000    451313.300000       103.766400    452886.200000      -136.241100    452583.800000       -16.004860       299.859200       121.599300       322.741900      -116.333700       314.993900         3.393401        59.970800         0.154740
1643124144.0000    451235.500000        93.276400    452823.200000      -146.743100    452594.000000       -26.500690       300.265800       110.886200       323.575300      -126.942100       315.319800        -7.131674        59.970810         0.047002
1643124145.0000    451133.400000        83.133330    452671.800000      -156.883000    452446.100000       -36.645650       299.286900       100.697400       322.545400      -137.157000       314.170900       -17.415670        59.971620         0.125716
1643124146.0000    451098.800000        73.494050    452591.500000      -166.529500    452420.400000       -46.296040       299.795700        90.746950       323.476800      -147.175500       316.115300       -27.280540        59.975230         0.220772
1643124147.0000    451110.100000        63.925610    452706.300000      -176.095100    452467.700000       -55.849580       300.405500        81.647700       323.806200      -156.175300       315.584400       -36.386130        59.972740        -0.036753
1643124148.0000    451031.500000        54.533280    452642.400000       174.505400    452459.400000       -65.243720       300.518900        71.896190       325.081600      -165.989900       316.800000       -45.973590        59.973630        -0.174767
1643124149.0000    451081.300000        45.490810    452697.900000       165.468800    452469.800000       -74.282680       301.300900        62.858520       324.638600      -174.840700       316.180300       -55.090950        59.975880         0.115781
1643124150.0000    451277.700000        36.964450    452842.900000       156.939500    452648.900000       -82.815250       299.076500        54.728760       322.278100       176.859600       314.482100       -63.324580        59.977730         0.097766
1643124151.0000    451350.600000        29.437540    452911.600000       149.425300    452625.200000       -90.339220       299.975800        47.240470       322.787600       169.312900       315.632000       -71.015060        59.980760         0.093895
1643124152.0000    451378.400000        22.465480    452982.500000       142.453400    452685.300000       -97.304820       300.204100        40.235980       323.679000       162.426700       315.524100       -77.836210        59.981300        -0.025677
1643124153.0000    451190.000000        16.038630    452838.900000       136.036400    452448.000000      -103.722300       301.884300        33.425340       323.904200       155.665800       316.143100       -84.834040        59.982910        -0.032411
1643124154.0000    451159.700000        10.204780    452812.400000       130.183700    452554.200000      -109.565800       301.862900        27.613160       325.237700       149.873100       316.629200       -90.421550        59.983010        -0.299185
1643124155.0000    451313.800000         5.116004    452874.800000       125.098500    452647.800000      -114.660600       299.980800        22.756090       323.182600       144.854300       315.793800       -95.318120        59.987340        -0.039971
1643124156.0000    451376.800000         0.966689    452962.500000       120.959100    452655.100000      -118.805300       303.437300        18.474390       326.414500       140.614800       318.584400       -99.695180        59.988680         0.109147
1643124157.0000    451328.500000        -2.964917    452898.400000       117.021900    452626.500000      -122.739800       302.609400        14.804880       325.683900       136.810400       318.181700      -103.400300        59.989950         0.059775
1643124158.0000    451365.100000        -6.388979    452934.200000       113.596600    452673.200000      -126.164900       300.688900        11.235460       324.156200       133.355700       316.271900      -106.860600        59.991050        -0.152578
1643124159.0000    451309.100000        -8.783941    452910.200000       111.211700    452554.500000      -128.552000       302.716900         8.882166       325.180100       131.007200       317.572400      -109.374400        59.994420         0.081310
1643124160.0000    451363.000000       -10.558380    452968.700000       109.426200    452696.800000      -130.331200       301.726100         7.155243       324.792500       129.318400       316.934400      -110.991500        59.996490        -0.055878
1643124161.0000    451257.900000       -11.471000    452837.000000       108.517200    452556.700000      -131.245500       303.126600         5.925569       326.219800       128.053000       318.892500      -112.216800        59.998040        -0.008594
1643124162.0000    451169.300000       -12.040920    452797.000000       107.949900    452467.200000      -131.806800       302.483900         5.482363       324.984500       127.670800       317.249100      -112.689300        59.997560        -0.188962
1643124163.0000    450967.800000       -12.124350    452566.800000       107.855100    452328.000000      -131.899100       303.199200         4.978728       326.440200       127.201700       318.112400      -113.037300        59.999920        -0.055349
1643124164.0000    451071.900000       -12.126570    452735.400000       107.856700    452442.900000      -131.892600       302.962400         5.341705       326.318500       127.474300       318.466500      -112.765000        60.000150        -0.063708
1643124165.0000    451071.300000       -12.127790    452722.900000       107.863200    452396.700000      -131.891100       303.757300         5.233333       326.982100       127.399900       318.927900      -112.855200        59.999420         0.002088
1643124166.0000    450937.700000       -12.525370    452484.800000       107.462900    452228.500000      -132.304000       303.202700         5.003022       325.826000       127.063800       318.331500      -113.241300        59.997800         0.065002
1643124167.0000    450902.300000       -13.539830    452626.200000       106.447300    452264.500000      -133.295300       301.988100         3.893432       324.845000       126.142900       316.838100      -114.260000        59.997490         0.067090
1643124168.0000    450986.300000       -14.675340    452704.300000       105.312500    452351.100000      -134.434500       303.785100         3.020038       326.898200       125.244900       318.490300      -115.055500        59.996080        -0.045235
1643124169.0000    450970.900000       -16.629090    452573.300000       103.368600    452208.000000      -136.395800       303.066200         1.023024       325.875200       123.357100       317.689100      -117.021900        59.994870         0.139435
1643124170.0000    450917.600000       -19.141340    452502.400000       100.846500    452229.100000      -138.914900       304.109800        -1.759923       326.796000       120.501500       318.639700      -119.863300        59.991670         0.030008
1643124171.0000    450863.300000       -22.387040    452548.600000        97.605040    452193.500000      -142.146100       303.278100        -5.204422       325.502700       117.149400       317.352500      -123.254700        59.990060        -0.007202
1643124172.0000    450857.500000       -26.302740    452505.200000        93.680190    452218.200000      -146.071900       303.404300        -8.847825       326.551300       113.446100       318.214200      -126.893300        59.988130         0.065920
1643124173.0000    450877.800000       -31.074790    452507.000000        88.921070    452162.700000      -150.837900       304.850600       -13.746960       326.918900       108.513000       318.908700      -132.047400        59.984410        -0.007934
1643124174.0000    450704.400000       -36.990360    452352.800000        82.991380    452077.700000      -156.760600       303.309700       -19.634650       326.108300       102.474500       318.235500      -137.801700        59.981370        -0.040741
1643124175.0000    450868.400000       -43.604420    452494.800000        76.388840    452163.000000      -163.368200       302.724500       -26.327440       325.699700        95.901890       317.799100      -144.445500        59.980630        -0.019626
1643124176.0000    450854.300000       -51.092590    452425.500000        68.907390    452072.400000      -170.860000       302.722900       -33.635850       324.669400        88.470050       317.530400      -151.966200        59.978030        -0.082894
1643124177.0000    450995.000000       -58.841630    452626.900000        61.135010    452396.300000      -178.615000       302.274500       -41.419910       326.030200        80.831640       317.270200      -159.389600        59.978570        -0.025419
1643124178.0000    450908.400000       -66.833780    452479.300000        53.150830    452231.900000       173.389600       302.899800       -49.528820       325.759600        72.567120       318.222600      -167.777200        59.978810         0.210844
1643124179.0000    450869.100000       -75.634580    452514.600000        44.359800    452162.200000       164.603200       302.514700       -58.230530       324.638900        64.018360       316.737600      -176.450200        59.975030        -0.018670
