Terminal: LT 765  ITABERA - IVAIPORA FUR C1
Tensão base: 765 kV
SOC inicial: 1643124120
SOC final: 1643124179
Taxa: 1 fasores/s
Total de frames faltantes: - 

Tempo_(SOC)           VA_mod_(V)     VA_ang_(graus)     VB_mod_(V)     VB_ang_(graus)     VC_mod_(V)     VC_ang_(graus)     IA_mod_(A)     IA_ang_(graus)     IB_mod_(A)     IB_ang_(graus)     IC_mod_(A)     IC_ang_(graus)     Frequência        Delta_Freq     Faltante
1643124120.0000    455958.700000        13.688790    458444.000000       133.515700    454196.600000      -106.247000       294.392000      -164.864000       306.574400       -45.994380       291.355200        76.404720        59.974970         0.225344
1643124121.0000    455911.200000         4.582622    458337.900000       124.449900    453840.400000      -115.338500       294.885500      -174.013600       305.349100       -55.210430       291.240000        66.881010        59.972890        -0.146908
1643124122.0000    455716.100000        -4.833276    458046.300000       114.976400    454000.300000      -124.794500       295.083200       176.530500       308.632000       -64.729210       293.130900        57.920310        59.972470        -0.183401
1643124123.0000    456080.000000       -14.836350    458559.400000       105.024200    454086.000000      -134.756000       296.990100       166.856900       308.027600       -74.275740       293.178000        48.019660        59.972360        -0.067659
1643124124.0000    456125.400000       -25.019640    458552.200000        94.823070    454216.900000      -144.952800       296.434800       156.693600       308.148800       -84.477260       293.513200        37.888690        59.971590         0.003385
1643124125.0000    455960.900000       -35.720630    458518.100000        84.109680    454207.200000      -155.647500       295.870200       145.993200       307.945300       -95.085070       292.423900        27.303300        59.970500        -0.114466
1643124126.0000    455774.600000       -46.965470    458375.800000        72.896110    453835.700000      -166.871900       296.148300       134.420500       306.771800      -106.585200       291.791000        15.528520        59.968720         0.144684
1643124127.0000    456008.300000       -58.513030    458489.300000        61.312100    454251.200000      -178.451200       293.244300       123.065500       305.907000      -118.020500       290.028700         4.495358        59.967320        -0.023687
1643124128.0000    456076.400000       -69.724030    458358.400000        50.112060    454148.800000       170.323000       295.713300       111.787700       307.408400      -129.591700       293.252700        -7.100855        59.967970        -0.298430
1643124129.0000    455963.100000       -81.252260    458517.100000        38.594290    454101.100000       158.830800       293.734600       100.317200       305.163400      -140.720100       290.196200       -18.510800        59.968900         0.196018
1643124130.0000    456256.700000       -92.585910    458715.200000        27.272170    454281.500000       147.491600       295.527600        88.989310       306.690900      -152.135000       291.689400       -29.936900        59.970490         0.068164
1643124131.0000    455588.000000      -104.208100    458126.300000        15.646390    453660.800000       135.875700       296.209000        77.107200       307.595100      -163.970900       292.481200       -41.753400        59.964740        -0.131807
1643124132.0000    455512.500000      -116.509400    458147.100000         3.331932    453727.600000       123.579800       296.418900        64.750600       307.948200      -176.177100       292.357200       -54.018380        59.965000        -0.059117
1643124133.0000    455756.200000      -129.416900    458326.000000        -9.573744    453924.800000       110.666100       293.600700        52.038620       306.079500       170.931800       290.606100       -66.646560        59.963260        -0.033927
1643124134.0000    455480.600000      -142.990900    458183.100000       -23.135460    453640.200000        97.112110       296.620600        38.268430       306.748800       157.408200       291.372100       -80.589700        59.961200         0.058934
1643124135.0000    455842.800000      -157.247800    458417.100000       -37.413920    454091.000000        82.829770       295.104000        24.214430       306.757700       143.202500       291.236200       -94.428960        59.960140         0.140379
1643124136.0000    455843.400000      -171.697200    458444.300000       -51.860550    454078.600000        68.385730       293.475300         9.709410       305.646500       128.691700       289.768600      -108.970200        59.959290        -0.168402
1643124137.0000    455934.000000       174.227700    458367.800000       -65.920610    453975.500000        54.298750       293.991500        -4.516959       305.240500       114.263700       290.484900      -123.466100        59.961850         0.043506
1643124138.0000    456194.000000       160.791600    458646.300000       -79.359670    454286.200000        40.864720       293.243500       -17.788620       304.922000       101.069300       290.116500      -136.595200        59.964460        -0.082681
1643124139.0000    455847.400000       148.040900    458395.300000       -92.113040    453984.400000        28.123290       295.039800       -30.753520       306.026500        88.163620       291.410800      -149.625000        59.968060         0.229718
1643124140.0000    455959.000000       135.449400    458437.900000      -104.695500    454007.200000        15.528560       294.414100       -43.225760       305.744100        75.610180       291.062700      -162.092200        59.967020         0.044159
1643124141.0000    455749.800000       123.431700    458377.000000      -116.735700    454018.500000         3.514863       294.591600       -55.473680       306.064100        63.560880       290.043400      -174.179500        59.966750        -0.031562
1643124142.0000    455925.700000       111.672400    458415.000000      -128.479900    454032.600000        -8.251334       294.100200       -66.878420       305.322300        51.993870       290.491900       174.255100        59.968040         0.047747
1643124143.0000    456186.400000       100.511700    458605.900000      -139.639900    454248.100000       -19.421240       293.499000       -77.986110       305.046100        40.803880       290.483000       163.165300        59.969500         0.055176
1643124144.0000    456023.100000        90.016080    458507.300000      -150.153400    454252.200000       -29.916360       294.292100       -88.704730       306.395600        30.245990       290.960700       152.577200        59.971890         0.139345
1643124145.0000    455865.200000        79.875980    458298.600000      -160.286700    454018.900000       -40.057850       293.735300       -98.958920       305.471100        19.904460       290.307200       142.292400        59.972580         0.247614
1643124146.0000    455738.400000        70.230190    458069.200000      -169.949800    453955.000000       -49.724870       294.743800      -108.766800       307.265900        10.072920       291.709600       132.557300        59.975160         0.186865
1643124147.0000    455971.700000        60.666840    458450.300000      -179.502200    454179.000000       -59.267160       294.121600      -117.858500       306.374800         1.048048       291.000900       123.406200        59.972500        -0.109775
1643124148.0000    455728.200000        51.262680    458256.700000       171.071600    454118.600000       -68.676510       295.114000      -127.650500       308.559800        -8.715295       292.293300       113.835000        59.974750        -0.145874
1643124149.0000    455817.300000        42.213920    458362.300000       162.043400    454067.700000       -77.713640       295.787900      -136.628500       307.492200       -17.589430       291.867400       104.706700        59.975730         0.181117
1643124150.0000    456119.500000        33.717960    458558.600000       153.545500    454338.400000       -86.221560       293.058400      -144.912600       305.104300       -26.052260       290.036800        96.353400        59.978300         0.141767
1643124151.0000    456237.500000        26.180410    458612.300000       146.028500    454283.000000       -93.754570       294.169500      -152.315300       305.570100       -33.588790       291.139300        88.781230        59.980860        -0.032386
1643124152.0000    456268.600000        19.204390    458744.400000       139.046400    454403.800000      -100.722100       294.267800      -159.317200       306.121600       -40.430420       290.803500        81.947140        59.981060        -0.055329
1643124153.0000    455934.800000        12.748290    458442.300000       132.619700    453908.000000      -107.160100       295.968600      -166.063200       306.867800       -47.186160       292.303000        74.941030        59.982470         0.036785
1643124154.0000    455887.200000         6.913766    458496.600000       126.748700    454143.300000      -113.001400       296.403100      -171.911300       307.996300       -52.883500       292.274100        69.428630        59.981780        -0.206594
1643124155.0000    456113.800000         1.859083    458521.000000       121.692800    454282.500000      -118.081300       294.098900      -176.852200       305.989100       -58.048660       291.066400        64.396270        59.988020        -0.013983
1643124156.0000    456209.600000        -2.333710    458653.100000       117.518100    454288.700000      -122.259700       297.982800       179.071200       309.446300       -62.073640       294.491500        60.248670        59.988350        -0.008251
1643124157.0000    456256.400000        -6.253554    458656.200000       113.588400    454360.000000      -126.190600       296.391200       175.319100       308.620600       -65.910510       293.482400        56.460390        59.990990         0.233198
1643124158.0000    456194.000000        -9.657017    458613.500000       110.182000    454321.000000      -129.591900       295.049300       171.667000       306.742700       -69.469080       291.625700        52.890840        59.991700        -0.154575
1643124159.0000    456180.000000       -12.073360    458657.900000       107.785800    454205.900000      -131.992800       296.481800       169.413800       307.610000       -71.758430       293.148300        50.499370        59.994490         0.052831
1643124160.0000    456240.100000       -13.839750    458721.600000       106.001200    454398.800000      -133.768800       295.622200       167.582700       307.376700       -73.546720       292.362400        48.776910        59.996050        -0.013978
1643124161.0000    456064.700000       -14.773740    458479.600000       105.072000    454147.600000      -134.706100       297.400100       166.558300       309.301900       -74.685430       294.687800        47.708940        59.997280        -0.053322
1643124162.0000    456001.900000       -15.332700    458508.500000       104.518600    454075.300000      -135.254200       296.620900       166.014100       307.968000       -75.076030       293.021200        47.180930        59.998240        -0.055354
1643124163.0000    455599.500000       -15.432720    458126.200000       104.400400    453817.500000      -135.359900       298.064600       165.556400       309.796100       -75.462750       294.503000        46.791230        60.000050         0.001042
1643124164.0000    455880.800000       -15.425140    458442.200000       104.407300    454097.000000      -135.351400       297.531800       165.893500       309.257300       -75.211390       294.260200        47.139220        59.999390        -0.109151
1643124165.0000    455846.200000       -15.436790    458386.900000       104.407800    454010.400000      -135.357100       298.160400       165.843900       310.174200       -75.288520       294.747500        47.060070        59.998550        -0.030703
1643124166.0000    455756.300000       -15.821770    458137.200000       104.021500    453839.900000      -135.760800       297.144200       165.501700       308.874200       -75.665640       294.361400        46.680770        59.997770         0.051400
1643124167.0000    455654.900000       -16.830380    458302.400000       103.020200    453824.300000      -136.736300       296.580400       164.440100       307.855700       -76.654100       292.756300        45.579080        59.997550         0.057858
1643124168.0000    455918.400000       -17.978770    458546.800000       101.865700    454128.700000      -137.889000       297.527300       163.572100       309.352800       -77.437140       293.794500        44.871230        59.995600        -0.043187
1643124169.0000    455884.600000       -19.926700    458397.200000        99.932870    453940.500000      -139.841400       296.878900       161.668000       308.272100       -79.393970       292.895400        42.845410        59.994480         0.072636
1643124170.0000    455736.300000       -22.452500    458203.100000        97.395720    453835.400000      -142.378800       298.162800       158.875900       309.586900       -82.184140       294.396700        40.076400        59.991130         0.092604
1643124171.0000    455567.800000       -25.692270    458195.400000        94.165050    453672.200000      -145.596700       297.843300       155.406600       308.889400       -85.583640       293.811600        36.595700        59.989870        -0.108969
1643124172.0000    455688.800000       -29.608590    458260.300000        90.234970    453886.600000      -149.525400       297.882000       151.766800       309.369600       -89.197020       293.922200        32.987670        59.987430        -0.049354
1643124173.0000    455675.800000       -34.396230    458179.500000        85.470190    453662.500000      -154.308800       299.614100       146.958100       309.616900       -94.130170       295.443300        27.939410        59.984060        -0.094815
1643124174.0000    455468.400000       -40.297810    457978.200000        79.543060    453641.100000      -160.222300       297.792700       140.954100       309.279300      -100.160700       294.224300        22.142030        59.981430        -0.036223
1643124175.0000    455587.400000       -46.904260    458116.300000        72.946610    453691.800000      -166.822200       297.155900       134.323800       308.861600      -106.788200       293.695900        15.498370        59.979990        -0.002335
1643124176.0000    455625.700000       -54.383870    458028.800000        65.479760    453594.700000      -174.310700       297.237700       126.946200       307.949100      -114.275000       293.620800         8.005907        59.977200        -0.333297
1643124177.0000    455764.900000       -62.127040    458326.900000        57.696530    454046.000000       177.943100       296.915900       119.146500       309.022500      -121.803700       292.924800         0.540612        59.978540        -0.123263
1643124178.0000    455646.000000       -70.128200    458050.200000        49.709300    453763.400000       169.932100       297.121100       111.048100       308.920500      -130.136400       294.650100        -7.713881        59.978740         0.180749
1643124179.0000    455653.400000       -78.926220    458186.100000        40.931210    453692.000000       161.156800       297.063900       102.347800       307.521900      -138.756100       293.039000       -16.555890        59.974940         0.035382
