Terminal: LT 765  IVAIPORA FUR - ITABERA C1
Tensão base: 765 kV
SOC inicial: 1643124120
SOC final: 1643124179
Taxa: 1 fasores/s
Total de frames faltantes: - 

Tempo_(SOC)           VA_mod_(V)     VA_ang_(graus)     VB_mod_(V)     VB_ang_(graus)     VC_mod_(V)     VC_ang_(graus)     IA_mod_(A)     IA_ang_(graus)     IB_mod_(A)     IB_ang_(graus)     IC_mod_(A)     IC_ang_(graus)     Frequência        Delta_Freq     Faltante
1643124120.0000    450456.500000        17.061470    452541.800000       136.974000    451132.500000      -102.821300       315.284300        35.102070       324.311600       152.715700       314.469000       -83.756600        59.975320         0.097413
1643124121.0000    450446.600000         7.961185    452508.900000       127.894000    450969.500000      -111.915200       315.988200        25.910130       322.924800       143.503700       313.570300       -93.287980        59.974080        -0.171774
1643124122.0000    450255.400000        -1.453449    452260.300000       118.455500    450909.800000      -121.347600       315.630200        16.448340       325.776800       133.891800       316.065300      -102.380200        59.972170        -0.209038
1643124123.0000    450473.900000       -11.438960    452537.500000       108.495300    451002.400000      -131.312900       317.777600         6.609087       326.191200       124.292400       316.276300      -112.303700        59.971920        -0.027602
1643124124.0000    450499.700000       -21.623330    452546.300000        98.298290    451087.800000      -141.507100       318.038200        -3.494748       326.462600       114.117900       316.277800      -122.480100        59.971870         0.087973
1643124125.0000    450343.600000       -32.336640    452453.800000        87.576150    451036.400000      -152.214900       317.024100       -14.168680       326.204100       103.517800       315.906600      -133.059700        59.969940        -0.002120
1643124126.0000    450299.600000       -43.577210    452444.000000        76.354080    450883.800000      -163.444000       316.904700       -25.699470       324.835800        92.106370       314.245800      -144.726600        59.968130         0.088443
1643124127.0000    450444.400000       -55.160210    452472.100000        64.756540    451058.100000      -175.046300       314.420400       -36.944310       324.253400        80.701040       313.692300      -155.772800        59.966580        -0.028171
1643124128.0000    450545.300000       -66.341190    452529.900000        53.576270    451131.500000       173.766400       316.472000       -48.295390       324.789600        69.099050       316.023000      -167.448500        59.969520        -0.120908
1643124129.0000    450386.000000       -77.886920    452517.200000        42.034200    451031.700000       162.238400       314.874900       -59.725030       323.141400        58.006570       313.036800      -178.638200        59.968900         0.182505
1643124130.0000    450698.800000       -89.205730    452745.200000        30.727470    451230.300000       150.918000       316.435500       -71.026730       324.763200        46.592510       314.622300       169.915300        59.970580         0.057979
1643124131.0000    450169.300000      -100.810100    452276.800000        19.115660    450772.500000       139.318000       316.865800       -83.109490       325.073500        34.697950       314.875500       157.942700        59.966000        -0.083702
1643124132.0000    450115.400000      -113.112300    452279.600000         6.807294    450793.800000       127.017300       316.742300       -95.438390       325.724700        22.383230       314.826000       145.738000        59.965550         0.004881
1643124133.0000    450261.300000      -126.049700    452413.600000        -6.124060    450872.300000       114.081600       314.594100      -108.016200       323.687200         9.646593       313.603300       133.136900        59.964350         0.065700
1643124134.0000    450058.300000      -139.592300    452252.200000       -19.675950    450759.500000       100.537500       316.878900      -121.896300       324.595500        -3.962376       313.681200       119.185000        59.960640        -0.091522
1643124135.0000    450332.000000      -153.869500    452443.700000       -33.953960    451005.500000        86.252720       315.597400      -135.880500       324.817900       -18.157340       314.125100       105.298900        59.959560         0.048459
1643124136.0000    450395.000000      -168.334600    452515.300000       -48.415040    451034.300000        71.790410       314.353000      -150.349800       323.428300       -32.605800       312.789600        90.885700        59.959790        -0.177689
1643124137.0000    450506.500000       177.591100    452556.900000       -62.485980    451098.300000        57.708640       314.335500      -164.482900       322.644200       -46.916840       312.731200        76.418880        59.961940         0.007860
1643124138.0000    450686.900000       164.151400    452748.200000       -75.923220    451270.500000        44.271270       314.432700      -177.775800       322.823700       -60.166380       312.987300        63.238620        59.963940        -0.107029
1643124139.0000    450471.300000       151.419200    452603.500000       -88.661420    451123.800000        31.545790       315.306200       169.155000       323.639000       -73.182370       313.646000        50.145680        59.966980         0.167070
1643124140.0000    450522.600000       138.818300    452618.900000      -101.252500    451085.200000        18.944320       315.071000       156.792500       323.144200       -85.695050       313.625500        37.683590        59.966200         0.045401
1643124141.0000    450435.100000       126.800900    452548.700000      -113.285000    451127.200000         6.922269       314.645400       144.478900       323.790700       -97.733600       312.793700        25.667760        59.966500        -0.093548
1643124142.0000    450433.200000       115.038600    452516.700000      -125.039800    451048.900000        -4.839641       314.780400       133.091900       323.156100      -109.254000       313.200700        14.092790        59.968090         0.054993
1643124143.0000    450661.300000       103.872100    452708.200000      -136.201800    451217.000000       -16.006460       314.584200       121.962600       323.167700      -120.503500       313.420800         2.955199        59.969760         0.123446
1643124144.0000    450584.500000        93.384280    452648.000000      -146.703900    451242.900000       -26.501290       314.885400       111.315000       324.170300      -131.013200       314.139500        -7.510424        59.971370         0.125017
1643124145.0000    450475.600000        83.242150    452493.400000      -156.839700    451075.800000       -36.644780       314.239200       101.092900       322.951500      -141.271600       312.737600       -17.815140        59.972160         0.092040
1643124146.0000    450453.000000        73.601710    452407.200000      -166.488400    451064.300000       -46.295870       314.603500        91.267430       324.188400      -151.277600       314.311600       -27.660070        59.974540         0.154124
1643124147.0000    450460.700000        64.036370    452531.900000      -176.048600    451117.700000       -55.847260       315.304400        82.088660       324.202500      -160.360000       314.044300       -36.799630        59.973640        -0.057637
1643124148.0000    450381.000000        54.642540    452476.800000       174.548900    451110.200000       -65.242550       314.907600        72.330870       325.721500      -170.065600       315.285900       -46.406140        59.974100        -0.186802
1643124149.0000    450421.400000        45.599410    452515.900000       165.511100    451104.800000       -74.282150       315.982700        63.306620       325.233600      -178.960100       314.711500       -55.551940        59.975290        -0.002467
1643124150.0000    450624.700000        37.073130    452680.000000       156.982300    451301.300000       -82.816800       313.840900        55.199970       323.055800       172.769000       313.029400       -63.715500        59.977870         0.055843
1643124151.0000    450696.000000        29.543850    452744.100000       149.467600    451288.800000       -90.338470       314.886700        47.708920       323.005800       165.200600       313.795100       -71.376590        59.980690         0.066934
1643124152.0000    450724.600000        22.572550    452803.500000       142.493700    451330.000000       -97.306830       315.092500        40.666500       324.025600       158.370800       314.051300       -78.239240        59.981640         0.035795
1643124153.0000    450545.600000        16.144720    452671.900000       136.077600    451117.900000      -103.724400       316.599600        33.836630       324.132600       151.528400       314.439500       -85.254500        59.981680        -0.091335
1643124154.0000    450500.000000        10.310510    452636.400000       130.223000    451184.600000      -109.567400       316.782600        28.013360       325.844700       145.806800       315.089900       -90.801060        59.982430        -0.262843
1643124155.0000    450656.900000         5.224228    452702.300000       125.139700    451299.000000      -114.661700       314.755900        23.209030       323.692700       140.706000       314.071100       -95.763710        59.988170         0.066190
1643124156.0000    450741.300000         1.076180    452796.900000       121.001900    451310.100000      -118.804300       318.706900        18.940910       327.050700       136.534000       317.016100      -100.059900        59.989130         0.103655
1643124157.0000    450681.300000        -2.858498    452736.400000       117.063100    451281.800000      -122.742700       317.071000        15.193770       326.125400       132.725400       316.650300      -103.832200        59.990920         0.207709
1643124158.0000    450705.100000        -6.283154    452758.500000       113.636300    451316.300000      -126.167300       315.768200        11.736490       324.686400       129.308800       314.764500      -107.234200        59.991090        -0.158085
1643124159.0000    450667.400000        -8.675579    452738.800000       111.255600    451217.900000      -128.550900       317.562700         9.298171       325.814500       126.960200       315.830300      -109.681800        59.994770         0.043972
1643124160.0000    450704.300000       -10.450250    452797.200000       109.466000    451352.300000      -130.332800       316.448600         7.577808       325.251200       125.205000       315.313300      -111.392500        59.997200         0.027992
1643124161.0000    450622.600000       -11.362400    452664.700000       108.559800    451197.200000      -131.244100       317.967300         6.432146       326.709100       123.970200       317.027800      -112.580900        59.998540        -0.011039
1643124162.0000    450528.100000       -11.933530    452629.900000       107.990900    451124.800000      -131.808000       317.300000         5.985490       325.661900       123.620000       315.526200      -113.004500        59.997830        -0.122236
1643124163.0000    450303.100000       -12.016290    452393.200000       107.897400    450966.400000      -131.898100       318.189600         5.476455       327.060800       123.171200       316.547200      -113.480200        59.999790        -0.047403
1643124164.0000    450418.600000       -12.019270    452568.500000       107.898800    451097.700000      -131.893200       318.019000         5.807793       327.270900       123.416800       316.681600      -113.136500        59.999210        -0.156975
1643124165.0000    450425.700000       -12.021180    452561.500000       107.903200    451058.200000      -131.893700       318.680000         5.695289       327.665400       123.345000       317.499800      -113.273700        59.998400        -0.037369
1643124166.0000    450287.900000       -12.415220    452306.100000       107.505900    450870.700000      -132.302200       317.844100         5.412347       326.554600       122.994200       316.861400      -113.588000        59.998380         0.071234
1643124167.0000    450246.800000       -13.429070    452439.400000       106.493100    450903.100000      -133.294400       316.996700         4.355832       325.799000       122.062900       315.031200      -114.689900        59.997360        -0.047726
1643124168.0000    450340.200000       -14.571060    452525.800000       105.352200    450998.800000      -134.437900       318.636600         3.411521       327.431300       121.185500       316.899100      -115.406400        59.995430         0.007291
1643124169.0000    450320.300000       -16.521700    452389.900000       103.409700    450862.300000      -136.395600       317.914000         1.485575       326.650600       119.260000       315.894100      -117.502400        59.994690         0.142685
1643124170.0000    450281.700000       -19.035890    452342.800000       100.884300    450886.500000      -138.918100       318.779800        -1.301518       327.386600       116.439600       317.060900      -120.234400        59.991110         0.064361
1643124171.0000    450210.400000       -22.277380    452369.400000        97.648640    450833.200000      -142.146300       317.905700        -4.676405       326.576300       113.084500       315.638600      -123.640500        59.989870        -0.096670
1643124172.0000    450193.200000       -26.194580    452324.100000        93.721860    450862.800000      -146.072500       318.263100        -8.359891       327.195300       109.302600       316.519900      -127.261200        59.988000         0.044788
1643124173.0000    450236.500000       -30.967890    452348.100000        88.962790    450812.600000      -150.839700       319.742000       -13.368290       327.384400       104.401700       317.444000      -132.440400        59.984170        -0.021186
1643124174.0000    450062.300000       -36.883860    452176.900000        83.033470    450721.800000      -156.761700       317.918500       -19.203360       326.654700        98.419030       316.502900      -138.202300        59.981510        -0.050337
1643124175.0000    450198.500000       -43.496230    452321.100000        76.429170    450800.000000      -163.368500       317.417000       -25.854300       326.178700        91.761240       316.092200      -144.832900        59.980660        -0.004968
1643124176.0000    450199.300000       -50.982510    452246.800000        68.949320    450715.500000      -170.860300       317.342900       -33.204780       325.394300        84.359820       315.647500      -152.357100        59.978490        -0.143833
1643124177.0000    450348.300000       -58.732950    452448.000000        61.178310    451030.000000      -178.614000       317.226000       -40.983860       326.599900        76.729790       315.867600      -159.794800        59.977720        -0.167028
1643124178.0000    450256.200000       -66.728740    452309.100000        53.189370    450872.800000       173.386600       317.238700       -49.092580       326.309400        68.512600       316.456800      -168.097000        59.978000         0.241162
1643124179.0000    450225.500000       -75.527760    452346.300000        44.398420    450812.200000       164.599200       317.335800       -57.791840       325.304000        59.965320       315.024600      -176.845800        59.975440         0.113335
