Terminal: LT 765  ITABERA - TIJUCO PRETO C1
Tensão base: 765 kV
SOC inicial: 1643124120
SOC final: 1643124179
Taxa: 1 fasores/s
Total de frames faltantes: - 

Tempo_(SOC)           VA_mod_(V)     VA_ang_(graus)     VB_mod_(V)     VB_ang_(graus)     VC_mod_(V)     VC_ang_(graus)     IA_mod_(A)     IA_ang_(graus)     IB_mod_(A)     IB_ang_(graus)     IC_mod_(A)     IC_ang_(graus)     Frequência        Delta_Freq     Faltante
1643124120.0000    453193.700000        15.710850    452940.200000       135.634300    448444.200000      -104.294700       306.433900        28.927830       314.957500       148.009300       302.758400       -88.357310        59.975180         0.276747
1643124121.0000    453160.400000         6.609490    452883.200000       126.561500    448213.600000      -113.386800       306.851400        19.651270       313.355200       138.815000       302.211100       -97.897330        59.973260        -0.145767
1643124122.0000    452971.100000        -2.802064    452604.100000       117.114300    448233.900000      -122.824600       307.088400        10.299740       316.581700       129.168300       304.528400      -106.961400        59.972160        -0.308903
1643124123.0000    453257.100000       -12.796910    452992.700000       107.153000    448331.000000      -132.793200       309.260800         0.488345       316.702900       119.705900       304.577500      -116.889900        59.972060        -0.033234
1643124124.0000    453284.300000       -22.983250    452978.000000        96.953260    448422.900000      -142.987500       308.819300        -9.662854       316.631500       109.473700       305.109300      -126.984900        59.972270         0.140355
1643124125.0000    453128.400000       -33.688870    452911.300000        86.236530    448387.300000      -153.688800       308.267000       -20.327610       316.506700        98.880090       304.323300      -137.575800        59.970350        -0.064948
1643124126.0000    453017.100000       -44.929440    452848.300000        75.017780    448150.700000      -164.913600       307.997600       -31.868390       315.259600        87.357730       303.045400      -149.223700        59.968320         0.069289
1643124127.0000    453235.100000       -56.499290    452925.800000        63.425810    448449.000000      -176.510500       305.604200       -43.119590       314.663100        76.038580       301.929500      -160.264100        59.967180         0.037755
1643124128.0000    453293.600000       -67.693610    452896.300000        52.236430    448433.600000       172.288900       307.662800       -54.460490       315.692300        64.365360       304.722600      -172.007100        59.968010        -0.262798
1643124129.0000    453164.900000       -79.233250    452952.300000        40.703380    448339.400000       160.773800       305.876100       -65.856680       313.664800        53.342120       301.384500       176.795700        59.969050         0.194455
1643124130.0000    453435.200000       -90.554860    453174.300000        29.392010    448525.200000       149.448400       307.702000       -77.287700       315.367500        41.830750       303.250100       165.357300        59.971750         0.149896
1643124131.0000    452875.500000      -102.167800    452656.900000        17.774230    448015.300000       137.838200       308.282200       -89.297980       315.735300        29.996710       303.289000       153.361700        59.964420        -0.198969
1643124132.0000    452812.300000      -114.470600    452664.300000         5.462610    448051.800000       125.540600       307.993400      -101.563400       316.316000        17.692420       303.457100       141.154000        59.965050         0.034934
1643124133.0000    452988.500000      -127.394800    452794.500000        -7.457378    448164.500000       112.614500       305.897000      -114.197300       314.463800         4.969464       302.207000       128.602400        59.963610         0.019745
1643124134.0000    452763.100000      -140.949100    452640.100000       -21.014370    447999.100000        99.065830       308.465700      -128.028900       315.309600        -8.582871       302.369200       114.605800        59.960550        -0.024615
1643124135.0000    453085.200000      -155.216400    452861.900000       -35.290820    448325.500000        84.783030       307.136400      -142.006100       315.343800       -22.808100       302.947800       100.794000        59.959840         0.073653
1643124136.0000    453121.300000      -169.677600    452923.800000       -49.748000    448339.000000        70.329260       305.327500      -156.473800       314.219700       -37.237020       301.090700        86.295470        59.959350        -0.157660
1643124137.0000    453216.400000       176.246500    452917.000000       -63.815260    448341.700000        56.242580       305.934800      -170.722400       313.293300       -51.604740       301.311000        71.841890        59.960810        -0.018052
1643124138.0000    453428.100000       162.810000    453134.200000       -77.252470    448570.200000        42.808640       305.445200       176.032000       313.339000       -64.843450       301.522100        58.701000        59.964120        -0.134751
1643124139.0000    453156.100000       150.069500    452975.100000       -89.996570    448363.300000        30.076290       307.101300       162.989900       314.276200       -77.815120       302.123100        45.607770        59.966870         0.127381
1643124140.0000    453230.900000       137.473800    452990.600000      -102.582000    448349.800000        17.479140       306.271700       150.572400       313.898900       -90.342190       302.048800        33.158400        59.967620         0.145807
1643124141.0000    453099.500000       125.456700    452917.900000      -114.618300    448369.300000         5.461250       306.079000       138.264500       314.053500      -102.378500       301.300900        21.121390        59.966490        -0.123211
1643124142.0000    453160.700000       113.691100    452914.900000      -126.372200    448321.300000        -6.308547       305.841900       126.894200       313.563900      -113.963800       301.691500         9.509230        59.966880        -0.001759
1643124143.0000    453417.400000       102.531600    453107.800000      -137.527000    448524.700000       -17.470320       305.687800       115.792600       313.634500      -125.136100       302.037600        -1.582721        59.970780         0.171259
1643124144.0000    453303.400000        92.041080    453041.700000      -148.035500    448558.600000       -27.966300       306.143200       105.152700       314.587100      -135.748500       302.218200       -12.112010        59.970730        -0.019762
1643124145.0000    453178.200000        81.899870    452840.700000      -158.173800    448355.100000       -38.110400       305.361500        94.854690       313.487100      -145.996000       301.341000       -22.444460        59.973360         0.304262
1643124146.0000    453104.600000        72.258090    452699.200000      -167.822900    448314.900000       -47.765850       305.931400        84.985140       314.984000      -155.945800       302.846300       -32.217580        59.975810         0.193573
1643124147.0000    453199.700000        62.688720    452925.000000      -177.385200    448440.100000       -57.317550       306.462000        75.906420       314.635600      -165.016600       302.573400       -41.378490        59.972990        -0.012160
1643124148.0000    453066.000000        53.289830    452846.300000       173.204700    448410.000000       -66.717590       306.819400        66.132790       316.277500      -174.793300       303.691600       -50.954450        59.973720        -0.172726
1643124149.0000    453123.100000        44.248090    452882.900000       164.171700    448378.700000       -75.754600       307.522800        57.117450       315.826700       176.364000       303.022000       -60.102950        59.976130         0.140614
1643124150.0000    453383.800000        35.734200    453067.100000       155.656900    448602.900000       -84.277850       305.035200        48.906510       313.358100       168.006300       301.364800       -68.293660        59.978620         0.071103
1643124151.0000    453462.500000        28.202360    453144.200000       148.139200    448583.900000       -91.803080       306.236100        41.468530       313.644500       160.450700       302.228200       -75.966380        59.981030        -0.017421
1643124152.0000    453498.000000        21.229120    453239.600000       141.164200    448662.500000       -98.771610       306.144300        34.421940       314.558400       153.610900       302.258000       -82.818670        59.982670         0.050513
1643124153.0000    453245.000000        14.786980    453028.300000       134.738900    448323.700000      -105.201100       307.990000        27.609370       314.847500       146.740500       303.095800       -89.851850        59.981960        -0.013208
1643124154.0000    453209.100000         8.954066    453022.500000       128.879300    448473.600000      -111.043400       307.966100        21.825880       316.276600       141.068200       303.201700       -95.457190        59.980770        -0.501502
1643124155.0000    453399.000000         3.880860    453075.000000       123.807200    448592.300000      -116.130200       305.943100        16.929880       314.278100       136.011100       302.574600      -100.379100        59.988030        -0.017671
1643124156.0000    453466.900000        -0.288058    453159.800000       119.651300    448592.300000      -120.291600       309.835000        12.625660       317.380200       131.786100       305.665000      -104.727000        59.988940         0.166851
1643124157.0000    453464.300000        -4.213963    453149.400000       115.719300    448606.400000      -124.222100       308.753800         8.957091       316.549100       127.960300       304.812600      -108.411500        59.991330         0.207208
1643124158.0000    453455.400000        -7.630044    453149.000000       112.301800    448632.700000      -127.639000       306.906800         5.413486       315.175300       124.509800       303.178100      -111.890200        59.991790        -0.148328
1643124159.0000    453403.000000       -10.035290    453163.300000       109.910400    448504.400000      -130.031300       308.800800         3.101542       316.082700       122.188500       304.382300      -114.383200        59.994050         0.049939
1643124160.0000    453475.900000       -11.805210    453217.900000       108.127900    448670.600000      -131.808200       307.661800         1.331462       315.714000       120.460700       303.565900      -115.967800        59.997400         0.017063
1643124161.0000    453338.100000       -12.725610    453037.500000       107.209600    448478.800000      -132.732200       309.157500         0.124816       317.235100       119.217100       305.445600      -117.188100        59.996940        -0.143900
1643124162.0000    453258.300000       -13.291790    453033.100000       106.648000    448406.600000      -133.288300       308.829200        -0.307539       316.082800       118.795400       304.091200      -117.713500        59.998390        -0.120811
1643124163.0000    452962.000000       -13.383710    452741.800000       106.542600    448218.300000      -133.386200       309.184000        -0.795260       317.524400       118.348600       305.054600      -118.085400        59.999880         0.022787
1643124164.0000    453149.800000       -13.383780    452965.700000       106.544000    448414.800000      -133.383000       309.203600        -0.496078       317.331100       118.624100       305.351300      -117.761000        59.999250        -0.034749
1643124165.0000    453131.800000       -13.389340    452949.600000       106.546800    448329.800000      -133.380900       309.832100        -0.591830       317.931900       118.549000       305.892500      -117.884100        59.998830         0.064522
1643124166.0000    453012.700000       -13.779750    452690.600000       106.156200    448160.600000      -133.789900       308.665300        -0.811869       316.992200       118.182200       305.408300      -118.250100        59.997240         0.007588
1643124167.0000    452937.800000       -14.788730    452850.000000       105.149900    448176.000000      -134.770600       308.263100        -1.962213       315.862500       117.328900       303.633200      -119.259900        59.997070        -0.058619
1643124168.0000    453115.100000       -15.933690    452966.700000       104.002300    448341.300000      -135.921200       309.778400        -2.778743       317.921400       116.414900       305.285000      -120.068800        59.995880         0.000049
1643124169.0000    453093.900000       -17.882720    452853.800000       102.062600    448214.500000      -137.877800       309.328400        -4.704022       316.801800       114.476300       304.338400      -122.027700        59.995390         0.222271
1643124170.0000    452990.500000       -20.402470    452713.500000        99.533470    448156.100000      -140.405800       309.901200        -7.527125       317.769400       111.700100       305.367900      -124.856200        59.991100         0.097287
1643124171.0000    452904.700000       -23.642660    452747.200000        96.299630    448062.900000      -143.628200       309.487500       -10.937310       316.938200       108.317600       304.435200      -128.273700        59.989380        -0.139177
1643124172.0000    452936.800000       -27.557480    452736.900000        92.375230    448151.700000      -147.552400       309.538200       -14.584460       317.486200       104.650100       305.028600      -131.902200        59.988500        -0.022681
1643124173.0000    452947.300000       -32.337570    452730.900000        87.611630    448059.700000      -152.327800       311.221000       -19.468690       317.596300        99.741130       306.281000      -137.042800        59.984090        -0.039185
1643124174.0000    452757.900000       -38.247410    452529.900000        81.683220    447989.300000      -158.247000       309.435300       -25.373060       317.196300        93.761810       305.209900      -142.773700        59.981770         0.022496
1643124175.0000    452890.000000       -44.857640    452702.300000        75.083220    448052.900000      -164.850300       308.956300       -32.051360       316.893900        87.093080       304.597500      -149.421700        59.980310        -0.019173
1643124176.0000    452892.900000       -52.340240    452583.200000        67.609680    447933.900000      -172.338600       309.036500       -39.400230       316.077300        79.674570       304.334200      -156.905300        59.977970        -0.254717
1643124177.0000    453066.700000       -60.090270    452858.700000        59.832000    448349.900000       179.907300       308.305600       -47.188760       317.132400        72.080890       304.295200      -164.342600        59.977870        -0.201857
1643124178.0000    452956.100000       -68.088410    452655.400000        51.845490    448117.800000       171.906400       308.518300       -55.285040       316.645200        63.771030       305.221300      -172.723200        59.980170         0.437737
1643124179.0000    452923.500000       -76.886890    452703.200000        43.057660    448052.800000       163.121100       308.857800       -63.946670       315.578000        55.271090       303.876000       178.546200        59.975120         0.059810
