Terminal: LT 765  ITABERA - IVAIPORA FUR C3
Tensão base: 765 kV
SOC inicial: 1643124120
SOC final: 1643124179
Taxa: 1 fasores/s
Total de frames faltantes: - 

Tempo_(SOC)           VA_mod_(V)     VA_ang_(graus)     VB_mod_(V)     VB_ang_(graus)     VC_mod_(V)     VC_ang_(graus)     IA_mod_(A)     IA_ang_(graus)     IB_mod_(A)     IB_ang_(graus)     IC_mod_(A)     IC_ang_(graus)     Frequência        Delta_Freq     Faltante
1643124120.0000    454457.900000        13.634810    458411.100000       133.510300    453557.300000      -106.276500       266.444200      -167.494400       285.035600       -46.304700       269.957000        75.023320        59.974320         0.183688
1643124121.0000    454402.300000         4.529287    458309.200000       124.444700    453210.300000      -115.366000       266.289200      -176.536800       282.398700       -55.632410       268.481600        65.946240        59.973000        -0.170141
1643124122.0000    454204.500000        -4.885744    458016.800000       114.973400    453358.000000      -124.819100       267.208000       174.122600       286.486800       -65.161300       271.394900        56.894020        59.973060        -0.190733
1643124123.0000    454556.200000       -14.889190    458515.200000       105.018400    453444.200000      -134.782500       268.009500       164.248600       283.745600       -74.314340       269.904100        46.782070        59.971520        -0.204864
1643124124.0000    454603.600000       -25.073810    458515.400000        94.816760    453569.300000      -144.983100       267.644800       154.307000       285.351100       -84.824580       273.039900        36.830490        59.972090         0.080670
1643124125.0000    454449.800000       -35.774490    458486.100000        84.104220    453574.300000      -155.675300       268.123100       143.228600       285.020500       -95.443980       269.872200        25.912470        59.970920        -0.001073
1643124126.0000    454264.000000       -47.019600    458335.800000        72.889150    453191.700000      -166.900300       267.877200       131.908100       284.875600      -106.864400       271.813400        14.391410        59.968270         0.143637
1643124127.0000    454492.000000       -58.567280    458444.400000        61.306700    453606.400000      -178.479900       264.671900       120.460100       283.392300      -117.867600       268.853900         3.477938        59.967410        -0.004792
1643124128.0000    454570.200000       -69.777370    458320.400000        50.108970    453498.800000       170.296100       267.569300       109.254400       284.762800      -129.512400       270.955000        -8.491185        59.968380        -0.273886
1643124129.0000    454449.000000       -81.305100    458487.300000        38.591210    453466.300000       158.806100       265.537200        97.530430       281.883600      -141.292000       269.024400       -19.860230        59.969350         0.170020
1643124130.0000    454743.400000       -92.638560    458677.100000        27.266970    453627.800000       147.462000       266.357700        86.301190       285.314700      -152.366600       269.051600       -31.125460        59.970570         0.086241
1643124131.0000    454068.500000      -104.258600    458085.400000        15.643010    453013.100000       135.851200       268.127600        74.239620       285.391100      -163.956100       268.455400       -42.982480        59.964650        -0.242676
1643124132.0000    454009.700000      -116.559700    458112.900000         3.329528    453089.300000       123.554200       268.799300        62.275470       285.616500      -176.680900       271.966900       -55.439460        59.965470        -0.043737
1643124133.0000    454239.600000      -129.470000    458289.800000        -9.580034    453287.300000       110.636800       264.881100        49.275460       283.891700       170.594500       270.623100       -67.744490        59.962990        -0.064074
1643124134.0000    453962.500000      -143.044300    458137.300000       -23.141640    452989.600000        97.083780       269.576400        35.618270       284.346100       157.027900       270.218300       -82.151850        59.961360         0.091574
1643124135.0000    454338.600000      -157.298000    458376.200000       -37.418230    453440.400000        82.802490       267.284100        21.609180       284.594900       142.922300       269.729300       -95.778500        59.959670         0.049090
1643124136.0000    454337.600000      -171.749600    458405.900000       -51.864750    453434.700000        68.356030       265.073900         6.730594       283.547400       128.419200       269.201700      -110.382100        59.958730        -0.228834
1643124137.0000    454427.200000       174.172900    458330.300000       -65.928500    453341.300000        54.268190       265.327000        -7.256335       282.019800       114.025300       270.198300      -124.600800        59.961760         0.087003
1643124138.0000    454680.300000       160.740300    458610.000000       -79.366290    453635.800000        40.836220       266.157900       -20.424170       283.285900       100.832600       268.125000      -137.978100        59.964260        -0.072527
1643124139.0000    454324.300000       147.989800    458366.900000       -92.116200    453344.400000        28.097220       267.907700       -33.552210       284.098300        87.839810       268.876300      -150.956300        59.967290         0.077075
1643124140.0000    454456.500000       135.396600    458394.300000      -104.702000    453364.300000        15.499400       264.862600       -46.086650       283.145100        75.285180       268.852800      -163.551400        59.966130         0.011840
1643124141.0000    454254.900000       123.378500    458344.300000      -116.738600    453384.300000         3.488842       266.384900       -58.111650       282.289600        63.659530       269.180700      -175.521200        59.967140        -0.056271
1643124142.0000    454417.900000       111.617500    458368.900000      -128.487600    453387.700000        -8.283088       265.350100       -69.623010       283.681100        51.645950       268.603600       172.937300        59.967240         0.078671
1643124143.0000    454671.000000       100.458000    458576.200000      -139.644600    453605.800000       -19.448510       263.611500       -80.709040       283.430900        40.288560       269.118000       161.749100        59.969360         0.049626
1643124144.0000    454505.900000        89.964660    458468.900000      -150.158700    453611.200000       -29.942960       265.884700       -91.421960       284.538900        30.154600       268.260900       151.457400        59.971780         0.096468
1643124145.0000    454362.600000        79.827260    458259.200000      -160.288500    453370.300000       -40.084030       266.027600      -101.559200       285.138900        19.887710       269.223200       141.142600        59.973060         0.182560
1643124146.0000    454229.600000        70.178920    458044.500000      -169.954100    453317.300000       -49.751510       266.509300      -111.658000       284.706100         9.762712       269.743600       130.967300        59.974480         0.060087
1643124147.0000    454461.800000        60.615960    458410.900000      -179.506400    453539.300000       -59.294980       264.446400      -120.771000       285.140400         0.701861       268.579100       122.162500        59.972540        -0.125915
1643124148.0000    454221.000000        51.211060    458218.300000       171.067900    453467.400000       -68.703740       265.187600      -130.239300       286.190900        -9.130561       271.721800       112.700400        59.973650        -0.263029
1643124149.0000    454297.100000        42.163400    458326.900000       162.040900    453419.600000       -77.737770       267.158400      -139.384000       286.584700       -17.679720       270.542300       103.335900        59.975720         0.069426
1643124150.0000    454600.400000        33.665840    458510.400000       153.539200    453698.000000       -86.249850       264.099500      -147.278600       282.977500       -26.005940       268.700500        95.257180        59.978030         0.133619
1643124151.0000    454721.700000        26.126740    458584.800000       146.021900    453649.300000       -93.784150       264.191800      -155.511000       283.780800       -33.985030       270.876600        87.404110        59.981370         0.098679
1643124152.0000    454743.300000        19.152700    458711.600000       139.042700    453763.400000      -100.747500       265.994700      -162.033500       283.524600       -40.840140       269.440500        80.574470        59.981330        -0.067580
1643124153.0000    454417.200000        12.699250    458407.400000       132.615900    453267.800000      -107.187200       268.623800      -168.446100       284.072200       -47.578930       271.670700        73.655120        59.982040        -0.082137
1643124154.0000    454380.200000         6.865200    458452.300000       126.746400    453510.200000      -113.029400       267.047500      -174.466000       284.905400       -52.959130       270.560700        68.284520        59.982880        -0.192800
1643124155.0000    454613.800000         1.804823    458489.200000       121.684900    453639.600000      -118.112400       265.816400      -179.421300       283.973500       -58.037460       269.912700        63.522580        59.988120         0.104382
1643124156.0000    454708.800000        -2.383897    458623.100000       117.510800    453651.100000      -122.288500       269.470200       176.441600       287.022700       -62.416890       273.298200        59.012600        59.988310         0.006754
1643124157.0000    454729.800000        -6.305240    458621.500000       113.581600    453723.700000      -126.218500       267.927000       172.528700       287.274200       -66.399820       272.257000        55.194950        59.990880         0.247564
1643124158.0000    454689.200000        -9.709177    458581.500000       110.174900    453686.800000      -129.623400       265.831200       168.913700       285.816200       -69.991040       270.957800        51.497990        59.991350        -0.129553
1643124159.0000    454668.400000       -12.126090    458610.800000       107.779100    453559.300000      -132.024500       267.790000       166.778000       284.778400       -72.192940       271.556900        48.844970        59.993410         0.033254
1643124160.0000    454734.200000       -13.889700    458691.600000       105.997800    453760.300000      -133.794800       267.360000       164.905400       285.251500       -73.602340       269.992200        47.592120        59.997280         0.050312
1643124161.0000    454542.300000       -14.822360    458435.300000       105.068200    453510.400000      -134.733000       269.429200       163.620100       285.803800       -74.969570       272.745900        46.586580        59.998260        -0.043273
1643124162.0000    454484.800000       -15.383250    458461.100000       104.514800    453446.000000      -135.280800       267.905000       163.369500       285.151700       -75.465550       271.916300        45.929630        59.998710        -0.048405
1643124163.0000    454101.800000       -15.484490    458091.300000       104.396300    453179.200000      -135.387300       269.746400       162.919300       287.291400       -76.029480       272.674900        45.333470        60.000480         0.028861
1643124164.0000    454377.800000       -15.482560    458400.200000       104.401200    453455.800000      -135.382600       269.282000       163.457000       286.599500       -75.540580       272.636600        46.030460        59.998930        -0.048731
1643124165.0000    454329.500000       -15.489230    458345.300000       104.401500    453354.200000      -135.385700       269.292800       163.368600       287.626400       -75.593330       273.498600        46.017460        59.999180         0.039741
1643124166.0000    454250.300000       -15.873060    458105.600000       104.017700    453197.700000      -135.787900       267.339300       162.760700       286.413200       -76.058350       272.224900        45.275280        59.998070         0.035724
1643124167.0000    454144.400000       -16.883280    458263.700000       103.016100    453179.100000      -136.763500       268.294600       161.430800       285.829000       -77.070200       270.368300        44.075070        59.996730        -0.039330
1643124168.0000    454400.500000       -18.028780    458513.300000       101.863100    453473.200000      -137.915500       267.613100       160.993900       287.775600       -77.669830       270.938800        43.824090        59.995970        -0.091280
1643124169.0000    454377.500000       -19.978450    458372.100000        99.925730    453300.200000      -139.871600       268.439400       158.915800       285.746700       -79.695140       270.934000        41.512180        59.994400         0.103946
1643124170.0000    454207.600000       -22.504230    458157.800000        97.389650    453195.000000      -142.405800       270.574200       156.470200       287.929800       -82.309780       272.719100        38.936970        59.990460        -0.019406
1643124171.0000    454056.800000       -25.743060    458157.300000        94.160260    453035.700000      -145.625500       267.163500       152.665300       286.990100       -85.882320       272.981200        35.472530        59.990140        -0.053902
1643124172.0000    454167.000000       -29.657820    458222.200000        90.231160    453221.300000      -149.552500       268.395400       149.053700       286.261800       -89.462430       270.937100        31.887810        59.987300        -0.071112
1643124173.0000    454161.900000       -34.448680    458144.600000        85.464260    453024.000000      -154.338100       271.171400       144.225000       287.046400       -94.271150       272.659500        26.665900        59.984860         0.049013
1643124174.0000    453950.600000       -40.348740    457935.200000        79.538240    452993.700000      -160.250100       269.447800       138.387700       287.324400      -100.297600       272.491700        21.161140        59.981380        -0.032683
1643124175.0000    454078.900000       -46.954580    458077.900000        72.942580    453056.700000      -166.849400       269.267400       131.618700       286.982200      -107.080600       272.959000        13.825470        59.978940        -0.117234
1643124176.0000    454121.400000       -54.435660    457994.100000        65.474270    452942.800000      -174.338000       270.101800       124.510300       286.604500      -114.708600       271.812000         7.007536        59.977470        -0.282565
1643124177.0000    454256.800000       -62.183850    458295.800000        57.692220    453396.600000       177.915900       268.509600       116.525600       287.304700      -122.317500       270.926600        -0.540943        59.978180        -0.150075
1643124178.0000    454131.200000       -70.182570    458005.600000        49.703620    453112.800000       169.902700       269.617400       108.570100       286.516100      -130.366600       272.568500        -8.899335        59.978830         0.199808
1643124179.0000    454144.800000       -78.980690    458145.800000        40.926770    453060.900000       161.131000       268.134300        99.471870       285.184600      -139.118700       271.710300       -18.104260        59.975280         0.002122
