Terminal: LT 765  ITABERA - TIJUCO PRETO C3
Tensão base: 765 kV
SOC inicial: 1643124120
SOC final: 1643124179
Taxa: 1 fasores/s
Total de frames faltantes: - 

Tempo_(SOC)           VA_mod_(V)     VA_ang_(graus)     VB_mod_(V)     VB_ang_(graus)     VC_mod_(V)     VC_ang_(graus)     IA_mod_(A)     IA_ang_(graus)     IB_mod_(A)     IB_ang_(graus)     IC_mod_(A)     IC_ang_(graus)     Frequência        Delta_Freq     Faltante
1643124120.0000    449831.400000        15.492370    453931.900000       135.499600    447925.800000      -104.389300       286.741800        34.100960       303.874300       154.051500       298.375900       -83.560760        59.975840         0.257903
1643124121.0000    449786.200000         6.389139    453872.200000       126.426800    447685.000000      -113.478800       287.230400        24.727440       302.616600       144.949000       297.639800       -92.488390        59.973630        -0.179854
1643124122.0000    449594.700000        -3.025183    453580.100000       116.974500    447689.000000      -122.924000       288.371300        15.209100       305.286400       135.356500       300.539900      -101.876100        59.972560        -0.182861
1643124123.0000    449867.400000       -13.017930    453965.200000       107.016800    447788.700000      -132.885700       290.181600         5.583041       305.432500       125.753800       300.226600      -112.115100        59.972520        -0.057991
1643124124.0000    449909.600000       -23.206590    453971.700000        96.816880    447895.900000      -143.084900       289.700000        -4.504875       305.434900       115.314600       301.985800      -122.194800        59.971610         0.045933
1643124125.0000    449767.200000       -33.911500    453932.500000        86.099520    447876.300000      -153.784800       288.921600       -15.374740       306.229200       104.748600       300.249400      -132.413100        59.969960        -0.129312
1643124126.0000    449642.300000       -45.152940    453846.300000        74.879970    447614.300000      -165.010400       288.394600       -26.896450       304.666400        93.369130       298.357000      -144.411500        59.969110         0.200787
1643124127.0000    449832.700000       -56.719440    453904.800000        63.291440    447905.300000      -176.603500       286.772200       -38.018700       304.679500        82.081130       298.229100      -155.259200        59.967320        -0.042046
1643124128.0000    449917.800000       -67.915490    453880.600000        52.100840    447898.200000       172.192700       288.704300       -49.401550       303.790800        70.434230       298.717700      -166.999800        59.969160        -0.203225
1643124129.0000    449788.300000       -79.452880    453957.400000        40.569310    447828.300000       160.680800       286.366300       -61.105610       302.865700        59.462140       296.573700      -178.503100        59.969190         0.152715
1643124130.0000    450075.000000       -90.780610    454175.700000        29.252320    448006.500000       149.349500       287.798800       -71.985920       303.701800        47.688900       298.617600       170.221600        59.971230         0.177622
1643124131.0000    449474.300000      -102.392200    453634.000000        17.636580    447467.200000       137.743100       288.371000       -84.468920       304.274400        35.888330       299.775300       158.399600        59.964240        -0.209432
1643124132.0000    449410.500000      -114.693400    453640.200000         5.325089    447509.200000       125.444300       288.085600       -96.699970       304.321700        23.722270       299.513700       145.803400        59.964580        -0.025167
1643124133.0000    449612.400000      -127.615700    453794.400000        -7.590440    447644.900000       112.520200       285.976600      -109.070000       303.031200        11.158220       297.938800       133.301400        59.964730         0.060732
1643124134.0000    449384.000000      -141.170600    453642.400000       -21.148290    447462.500000        98.971340       288.746600      -123.157200       304.321400        -2.699147       298.266600       119.337000        59.961080        -0.049990
1643124135.0000    449699.500000      -155.438100    453863.100000       -35.427280    447794.400000        84.685780       287.992400      -136.895100       303.937600       -16.539780       296.896700       105.691700        59.960790         0.219421
1643124136.0000    449729.100000      -169.898800    453910.100000       -49.881730    447800.300000        70.234110       285.276000      -151.570100       303.700000       -31.339770       296.541400        91.240170        59.958900        -0.256834
1643124137.0000    449826.800000       176.027900    453888.400000       -63.947460    447802.200000        56.151150       286.437000      -165.766600       302.022200       -45.485410       296.533200        76.890500        59.961500        -0.053182
1643124138.0000    450049.800000       162.589700    454137.700000       -77.387700    448037.300000        42.711990       286.297900      -178.943900       304.899900       -58.902770       298.524200        63.564650        59.964640        -0.047165
1643124139.0000    449778.400000       149.848900    453959.600000       -90.130800    447830.700000        29.982880       287.350800       167.999700       301.552200       -71.666650       298.185900        50.595130        59.966600         0.050183
1643124140.0000    449848.300000       137.251400    453986.300000      -102.720000    447816.800000        17.383550       287.273400       155.694300       303.104300       -84.227820       297.842700        37.934560        59.966550         0.041561
1643124141.0000    449703.700000       125.235100    453903.600000      -114.754100    447829.700000         5.366967       286.269000       143.405800       303.405400       -96.332820       295.580700        25.937640        59.966460        -0.112842
1643124142.0000    449778.800000       113.468200    453894.100000      -126.508500    447801.900000        -6.404422       285.742800       131.698700       301.303000      -108.214200       295.980900        14.436180        59.967040         0.063080
1643124143.0000    450039.400000       102.309200    454102.500000      -137.662800    447994.200000       -17.566290       285.744400       120.817000       301.455500      -119.285800       299.237500         2.961544        59.970360         0.116457
1643124144.0000    449925.800000        91.817890    454026.000000      -148.171800    448017.000000       -28.063150       287.232900       109.961500       302.601700      -129.867000       298.648300        -6.920456        59.971760         0.134657
1643124145.0000    449795.200000        81.676610    453828.400000      -158.307600    447825.100000       -38.206860       285.606900       100.073300       302.909800      -140.145000       297.231500       -17.566900        59.972440         0.218887
1643124146.0000    449714.200000        72.034870    453680.600000      -167.961700    447777.300000       -47.863910       287.631100        90.272380       304.554700      -149.836100       298.615400       -27.035030        59.975430         0.237166
1643124147.0000    449826.300000        62.467820    453919.300000      -177.519600    447905.200000       -57.412810       286.519300        80.869190       303.907300      -159.053600       298.957900       -36.533630        59.973530         0.011001
1643124148.0000    449668.700000        53.069150    453809.400000       173.066800    447857.800000       -66.812810       285.874200        71.279050       304.904000      -168.734100       299.511000       -46.088410        59.973930        -0.214778
1643124149.0000    449748.100000        44.027770    453893.900000       164.037200    447853.900000       -75.847740       287.219200        62.448710       304.428300      -177.505200       299.029000       -54.989970        59.975520        -0.011073
1643124150.0000    449997.500000        35.512060    454049.800000       155.517900    448083.500000       -84.373960       285.389000        53.767580       303.297600       174.001700       296.852200       -63.490750        59.978400         0.138714
1643124151.0000    450080.200000        27.978060    454125.800000       148.002500    448053.300000       -91.900140       287.374000        46.384950       302.436400       166.368100       298.776600       -71.276170        59.980780        -0.037024
1643124152.0000    450097.500000        21.006430    454211.400000       141.026500    448130.500000       -98.867650       287.232500        39.179970       302.513300       159.543900       297.854500       -77.992440        59.981660         0.005589
1643124153.0000    449861.200000        14.565930    454002.800000       134.605100    447776.700000      -105.293700       288.615600        32.726610       303.167200       152.487600       298.538500       -84.968130        59.982810         0.012343
1643124154.0000    449838.000000         8.729787    454021.500000       128.740700    447958.100000      -111.142600       287.869400        26.867660       305.404300       147.023600       299.158300       -90.361250        59.980370        -0.445200
1643124155.0000    450011.100000         3.659585    454062.000000       123.672100    448054.300000      -116.225400       286.596500        22.043060       302.469300       141.895700       297.850400       -95.513340        59.987930        -0.041498
1643124156.0000    450079.300000        -0.510362    454138.500000       119.514000    448051.200000      -120.387600       290.319300        17.378760       306.751200       137.971400       301.198100      -100.162700        59.988470         0.079005
1643124157.0000    450075.700000        -4.437377    454137.700000       115.582000    448081.200000      -124.319800       289.173900        13.864950       305.860900       133.937900       299.993600      -103.778500        59.991220         0.233532
1643124158.0000    450088.700000        -7.852658    454151.200000       112.164200    448105.200000      -127.735500       285.897400        10.364640       304.147400       130.372100       298.947600      -106.898500        59.990770        -0.239351
1643124159.0000    450049.700000       -10.257720    454148.200000       109.772900    447987.300000      -130.128000       288.646400         8.150542       304.283000       128.473800       298.658200      -109.464800        59.994260         0.065494
1643124160.0000    450101.500000       -12.028010    454201.700000       107.990200    448129.400000      -131.904400       288.608200         6.384388       305.209600       126.496300       299.081200      -111.130300        59.996400        -0.071902
1643124161.0000    449947.300000       -12.951200    454012.800000       107.070300    447933.400000      -132.830900       290.493700         5.056100       306.482100       125.127700       301.508000      -112.487700        59.997030        -0.070277
1643124162.0000    449883.400000       -13.517300    454015.800000       106.508900    447881.800000      -133.386900       289.925200         4.514356       304.858500       124.755900       299.712500      -112.923200        59.997570        -0.120183
1643124163.0000    449592.100000       -13.607540    453733.100000       106.403300    447689.300000      -133.483200       289.553700         4.121165       307.103200       124.492900       300.243800      -113.170300        60.000470         0.075487
1643124164.0000    449768.300000       -13.606030    453934.600000       106.406500    447875.500000      -133.477000       287.612100         4.587211       307.232800       124.449300       300.718800      -112.656300        59.999420        -0.086248
1643124165.0000    449742.800000       -13.610300    453919.900000       106.410400    447791.500000      -133.477300       289.713300         4.537996       306.961800       124.484000       302.470100      -112.890000        59.999090         0.036149
1643124166.0000    449641.000000       -14.002690    453676.500000       106.018300    447623.000000      -133.886800       289.527900         4.049582       305.522000       124.088900       301.031100      -113.518000        59.997710         0.053808
1643124167.0000    449576.100000       -15.011780    453835.800000       105.013000    447654.500000      -134.866500       286.579800         2.752166       306.315000       123.449800       299.857800      -114.216800        59.997280        -0.075110
1643124168.0000    449736.500000       -16.155670    453975.900000       103.865300    447818.600000      -136.016800       289.141800         2.026245       306.610400       122.197900       301.531800      -115.074900        59.995960         0.022745
1643124169.0000    449717.500000       -18.106070    453836.400000       101.926300    447675.100000      -137.973500       289.968100         0.229899       305.660600       120.584900       299.525300      -117.437000        59.995170         0.125210
1643124170.0000    449609.000000       -20.623900    453697.300000        99.397250    447610.200000      -140.499300       289.947900        -2.512882       306.429200       117.858900       301.229600      -120.068900        59.991080        -0.015496
1643124171.0000    449509.500000       -23.866420    453723.100000        96.162970    447530.700000      -143.723800       290.308800        -5.834315       305.706200       114.239800       301.403000      -123.427600        59.989860        -0.074841
1643124172.0000    449555.600000       -27.780850    453730.800000        92.236380    447624.100000      -147.651300       289.214200        -9.682490       305.773200       110.585400       301.160400      -127.006900        59.987370        -0.086048
1643124173.0000    449565.100000       -32.561810    453708.800000        87.472560    447509.800000      -152.425000       291.782700       -14.610860       305.131800       105.582500       301.293900      -132.131300        59.983970        -0.043662
1643124174.0000    449369.300000       -38.472190    453508.400000        81.543920    447438.600000      -158.346200       288.908300       -20.499120       306.208300        99.617750       300.078900      -137.779800        59.982250         0.166249
1643124175.0000    449504.400000       -45.082050    453666.800000        74.943880    447504.700000      -164.948300       287.808500       -26.927190       306.189300        92.971960       300.780300      -144.554500        59.979350        -0.061838
1643124176.0000    449511.300000       -52.562160    453569.000000        67.471820    447406.600000      -172.434800       288.634600       -34.522700       305.028400        85.625620       300.739900      -152.140500        59.977790        -0.261302
1643124177.0000    449683.000000       -60.315540    453839.600000        59.692570    447800.200000       179.810800       289.182300       -42.111900       305.759700        77.945650       300.047600      -159.549900        59.977410        -0.195783
1643124178.0000    449574.300000       -68.310800    453643.600000        51.707130    447598.100000       171.808600       289.453300       -50.189780       304.381900        69.732730       300.599100      -167.995400        59.979470         0.375077
1643124179.0000    449543.600000       -77.108760    453696.900000        42.921060    447518.500000       163.026600       288.567600       -59.124590       303.853700        61.303560       299.562300      -176.577800        59.975190         0.045072
