Terminal: LT 765  F.IGUACU 60HZ - IVAIPORA FUR C3
Tensão base: 765 kV
SOC inicial: 1643124120
SOC final: 1643124179
Taxa: 1 fasores/s
Total de frames faltantes: - 

Tempo_(SOC)           VA_mod_(V)     VA_ang_(graus)     VB_mod_(V)     VB_ang_(graus)     VC_mod_(V)     VC_ang_(graus)     IA_mod_(A)     IA_ang_(graus)     IB_mod_(A)     IB_ang_(graus)     IC_mod_(A)     IC_ang_(graus)     Frequência        Delta_Freq     Faltante
1643124120.0000    434525.000000        22.107140    439798.500000       141.723300    437165.100000       -97.839490       789.680600        39.057870       807.903400       159.598200       795.269100       -80.164400        59.974200         0.006761
1643124121.0000    434482.800000        13.013760    439750.500000       132.650300    436986.400000      -106.922800       790.369900        29.936270       807.340000       150.514500       795.171400       -89.347870        59.974380        -0.091864
1643124122.0000    434252.300000         3.611965    439459.000000       123.221400    436889.600000      -116.344400       791.362500        20.529720       810.092000       141.050200       797.895600       -98.688030        59.973370        -0.090107
1643124123.0000    434429.600000        -6.384074    439700.100000       113.248900    436959.400000      -126.319200       792.366400        10.677850       809.642800       131.246200       797.231100      -108.594400        59.971410        -0.104166
1643124124.0000    434451.300000       -16.571340    439692.000000       103.052800    437017.200000      -136.515400       792.035300         0.486204       810.052600       121.043000       797.754000      -118.750900        59.971150        -0.051198
1643124125.0000    434322.700000       -27.280180    439634.800000        92.335910    436980.600000      -147.223600       791.502700       -10.258290       809.868200       110.323400       797.064500      -129.450600        59.970340         0.008491
1643124126.0000    434308.100000       -38.520650    439643.100000        81.111940    436882.700000      -158.450700       791.384600       -21.570530       808.831700        99.052410       795.942900      -140.803100        59.967870        -0.023876
1643124127.0000    434433.800000       -50.100530    439682.400000        69.517590    437053.900000      -170.047000       790.088400       -33.093730       808.346300        87.462100       796.350800      -152.285900        59.967310        -0.049951
1643124128.0000    434599.100000       -61.290680    439773.800000        58.332440    437136.900000       178.756200       791.376600       -44.366830       808.790200        76.136490       797.294300      -163.626500        59.968720        -0.098234
1643124129.0000    434406.700000       -72.827370    439723.900000        46.796740    437009.300000       167.235600       790.720400       -55.840440       808.687000        64.739840       795.714400      -175.049700        59.967820         0.095854
1643124130.0000    434702.300000       -84.156910    439962.400000        35.475360    437219.400000       155.904100       791.177400       -67.158720       808.486500        53.416440       796.090500       173.599500        59.969720         0.035468
1643124131.0000    434211.800000       -95.750310    439535.000000        23.878350    436800.800000       144.315500       791.476300       -78.912110       809.334500        41.709820       796.611300       161.862700        59.966020        -0.155758
1643124132.0000    434138.600000      -108.045900    439485.500000        11.572960    436792.300000       132.018800       791.874500       -91.202580       810.296500        29.431600       796.814500       149.611100        59.964890        -0.116385
1643124133.0000    434255.700000      -120.983500    439570.400000        -1.359868    436866.500000       119.081500       791.181300      -104.022600       809.425600        16.586740       796.362700       136.765400        59.963680        -0.042359
1643124134.0000    434055.000000      -134.535000    439436.400000       -14.909860    436683.700000       105.537200       792.248700      -117.658500       810.051500         3.002312       796.596700       123.142000        59.961640         0.074628
1643124135.0000    434306.500000      -148.812200    439607.300000       -29.196830    436949.000000        91.245290       791.201500      -131.827100       809.604600       -11.211900       796.706200       108.977000        59.959790         0.040686
1643124136.0000    434392.500000      -163.276000    439719.500000       -43.655560    437026.600000        76.786450       790.451400      -146.364700       808.838400       -25.760280       795.889200        94.466530        59.959280        -0.092354
1643124137.0000    434616.300000      -177.353400    439866.700000       -57.727250    437170.200000        62.702090       790.263700      -160.527900       807.846100       -39.956210       795.166400        80.215000        59.961650         0.043246
1643124138.0000    434773.900000       169.202400    440031.500000       -71.170540    437319.500000        49.259250       789.723900      -173.897800       807.600700       -53.308160       795.080200        66.873440        59.964140         0.028181
1643124139.0000    434591.100000       156.472400    439916.400000       -83.904360    437212.000000        36.535420       790.346000       173.215500       808.318200       -66.176660       795.233200        53.998080        59.966510         0.198986
1643124140.0000    434606.200000       143.874600    439865.300000       -96.496190    437146.300000        23.934230       790.638200       160.745900       807.824300       -78.679280       795.552400        41.482930        59.965640         0.043684
1643124141.0000    434555.400000       131.854500    439875.500000      -108.529100    437208.400000        11.913520       789.885900       148.616800       808.038500       -90.750270       794.956000        29.439960        59.967200         0.013498
1643124142.0000    434524.400000       120.099200    439804.700000      -120.276300    437111.900000         0.158356       790.334600       136.935200       808.460300      -102.437700       795.645300        17.727950        59.968310         0.123743
1643124143.0000    434760.700000       108.930300    440020.800000      -131.444600    437325.700000       -11.013130       790.254600       125.810200       807.823400      -113.590500       795.140700         6.572300        59.969980         0.050718
1643124144.0000    434648.600000        98.440930    439911.700000      -141.942100    437283.500000       -21.505340       789.918600       115.310800       808.322000      -124.108800       795.769200        -3.916421        59.971420         0.053159
1643124145.0000    434583.300000        88.301110    439827.600000      -152.077600    437163.100000       -31.645560       789.883800       105.101900       807.541400      -134.320300       795.143900       -14.116110        59.971410         0.013337
1643124146.0000    434554.500000        78.661010    439731.300000      -161.725500    437148.300000       -41.296230       789.954800        95.414630       808.537400      -144.061300       796.362400       -23.824180        59.974250         0.041327
1643124147.0000    434509.800000        69.094350    439773.100000      -171.288400    437133.400000       -50.850730       790.880400        86.011860       808.954100      -153.411700       796.520800       -33.187920        59.972530        -0.090318
1643124148.0000    434460.000000        59.698420    439720.000000       179.304900    437155.000000       -60.252630       790.177100        76.531490       809.236500      -162.934300       796.650300       -42.656110        59.974220        -0.144456
1643124149.0000    434494.600000        50.652290    439787.400000       170.267100    437145.500000       -69.292320       790.505800        67.485590       808.953900      -171.941700       795.986700       -51.720920        59.976040         0.139434
1643124150.0000    434716.200000        42.126670    439955.200000       161.740800    437345.000000       -77.822560       789.128400        59.017970       807.652300       179.575200       795.055800       -60.183430        59.977200         0.041995
1643124151.0000    434833.000000        34.602690    440058.900000       154.227900    437379.900000       -85.342120       790.141800        51.460940       807.771300       172.008800       795.792200       -67.801540        59.980990         0.078067
1643124152.0000    434802.800000        27.628910    440093.500000       147.251000    437409.000000       -92.313490       790.312200        44.528720       808.225800       165.121900       795.698300       -74.666730        59.980900        -0.078772
1643124153.0000    434605.100000        21.199590    439925.300000       140.833700    437146.700000       -98.732540       791.124000        38.016820       808.169700       158.642900       795.781100       -81.232450        59.982010         0.014280
1643124154.0000    434580.300000        15.367850    439910.200000       134.982100    437244.400000      -104.571000       790.534500        32.150680       809.310600       152.778200       796.122600       -86.998160        59.984050        -0.059893
1643124155.0000    434772.800000        10.278740    440001.600000       129.897000    437369.400000      -109.669700       789.579400        27.138840       807.287300       147.694200       795.227700       -92.078990        59.988000         0.051500
1643124156.0000    434845.700000         6.126183    440120.300000       125.752100    437401.400000      -113.817200       791.613100        22.939660       809.252100       143.549400       796.553100       -96.286400        59.988020        -0.050686
1643124157.0000    434701.400000         2.192591    439937.000000       121.816100    437284.900000      -117.753100       790.974700        19.181630       808.951400       139.717100       796.580400      -100.078300        59.990290         0.174232
1643124158.0000    434769.600000        -1.230750    440011.200000       118.390800    437366.200000      -121.177800       789.845700        15.676610       807.637500       136.222400       795.408000      -103.551900        59.991620        -0.059028
1643124159.0000    434763.500000        -3.622848    440018.700000       116.008100    437288.800000      -123.563300       790.821100        13.252320       808.449800       133.839500       796.021100      -106.010400        59.994340         0.070494
1643124160.0000    434825.600000        -5.401080    440099.700000       114.219000    437426.000000      -125.343400       790.474100        11.480960       808.576000       132.060600       795.891700      -107.726600        59.996180         0.022191
1643124161.0000    434705.100000        -6.308055    439949.400000       113.314700    437270.100000      -126.254200       791.137300        10.522300       808.807700       131.085900       796.396900      -108.713000        59.998140        -0.095652
1643124162.0000    434601.900000        -6.872245    439896.700000       112.754100    437178.900000      -126.812200       791.295900         9.965929       809.094200       130.591800       796.227400      -109.253000        59.998500        -0.101729
1643124163.0000    434419.400000        -6.956766    439711.300000       112.660700    437050.100000      -126.901200       791.399700         9.764935       809.583100       130.344600       796.747300      -109.459800        59.999450        -0.055757
1643124164.0000    434501.600000        -6.958353    439815.500000       112.660500    437145.000000      -126.898800       791.695900         9.860561       809.966000       130.460400       797.106300      -109.308900        59.999820        -0.051096
1643124165.0000    434445.600000        -6.955593    439754.300000       112.666700    437050.600000      -126.895200       792.632000         9.905651       810.575000       130.490900       797.831700      -109.299400        59.998670        -0.067557
1643124166.0000    434306.500000        -7.354540    439522.300000       112.267400    436859.500000      -127.303800       791.815100         9.568110       809.294900       130.114300       797.379400      -109.685800        59.998070         0.032816
1643124167.0000    434278.600000        -8.376049    439628.500000       111.250100    436895.800000      -128.307400       791.183500         8.541882       808.950700       129.161600       795.823100      -110.665100        59.997300         0.090171
1643124168.0000    434341.500000        -9.508024    439703.200000       110.114600    436982.600000      -129.441700       792.239000         7.447371       810.529200       128.085300       797.520900      -111.724700        59.995980        -0.052583
1643124169.0000    434278.400000       -11.461870    439571.200000       108.169500    436812.800000      -131.396900       792.264800         5.535817       809.860000       126.155700       797.478200      -113.695800        59.993260         0.058824
1643124170.0000    434253.500000       -13.975070    439529.700000       105.648000    436847.300000      -133.917300       792.358600         2.946044       810.528300       123.543500       797.867100      -116.284000        59.990720        -0.095077
1643124171.0000    434189.300000       -17.212600    439528.700000       102.411900    436790.400000      -137.147700       792.229200        -0.321746       809.938700       120.304700       796.936600      -119.532000        59.990570         0.035261
1643124172.0000    434209.500000       -21.127550    439516.800000        98.492610    436847.400000      -141.069100       793.044300        -4.216637       811.096500       116.363300       798.344200      -123.438500        59.987430         0.033942
1643124173.0000    434190.800000       -25.901700    439488.800000        93.730670    436738.100000      -145.836300       793.617800        -8.986938       811.079800       111.610300       798.524200      -128.242600        59.985260         0.010227
1643124174.0000    434039.400000       -31.818980    439330.300000        87.802230    436659.000000      -151.760600       792.309700       -14.917420       810.389500       105.669800       797.561200      -134.135200        59.982060        -0.072708
1643124175.0000    434198.900000       -38.439190    439496.300000        81.188220    436774.500000      -158.376900       791.957000       -21.541750       809.411900        99.035220       796.929500      -140.761000        59.979630        -0.098128
1643124176.0000    434160.800000       -45.928150    439414.800000        73.706210    436666.200000      -165.868100       792.067100       -29.016120       809.023800        91.580280       797.099900      -148.267500        59.977540        -0.082962
1643124177.0000    434411.400000       -53.677180    439718.600000        65.937540    437071.900000      -173.621000       791.343100       -36.843190       809.690900        83.752260       796.838900      -156.017900        59.978240        -0.107830
1643124178.0000    434332.700000       -61.666600    439564.400000        57.953580    436918.100000       178.384900       791.971400       -44.863850       810.079700        75.677620       797.883200      -164.095700        59.977190         0.036053
1643124179.0000    434218.100000       -70.465070    439543.600000        49.167220    436786.100000       169.600000       792.176100       -53.585090       809.636300        67.032360       796.984600      -172.824000        59.974630        -0.049194
