Terminal: SPSTCH_500_LTRJSTAD_1
Tensão base: 500 kV
SOC inicial: 1643124120
SOC final: 1643124179
Taxa: 1 fasores/s
Total de frames faltantes: - 

Tempo_(SOC)           VA_mod_(V)     VA_ang_(graus)     VB_mod_(V)     VB_ang_(graus)     VC_mod_(V)     VC_ang_(graus)     IA_mod_(A)     IA_ang_(graus)     IB_mod_(A)     IB_ang_(graus)     IC_mod_(A)     IC_ang_(graus)     Frequência        Delta_Freq     Faltante
1643124120.0000    310872.300000        24.005910    310433.500000       143.602300    311982.000000       -96.110070       569.864300      -142.462300       575.884800       -24.406190       558.370800        96.932140        59.972680         0.140590
1643124121.0000    310729.500000        14.880010    310227.300000       134.571600    311379.900000      -105.199800       571.306300      -151.740400       573.144300       -33.667930       556.967900        87.377380        59.971660        -0.206035
1643124122.0000    310659.800000         5.489870    309898.800000       125.036700    311831.000000      -114.704300       566.069600      -161.153700       574.380700       -43.278620       556.711400        78.377650        59.971940        -0.462572
1643124123.0000    311096.300000        -4.597894    310606.600000       115.062800    311893.500000      -124.690100       568.677100      -171.025100       571.766800       -52.941180       554.893200        68.128670        59.971610        -0.441860
1643124124.0000    311155.900000       -14.780690    310646.100000       104.848300    312073.000000      -134.893100       567.900800       179.037700       572.389500       -62.978750       556.043900        58.270530        59.972710         0.014913
1643124125.0000    311113.200000       -25.467150    310690.400000        94.137380    312190.200000      -145.576900       567.180900       168.191200       573.026300       -73.656860       554.867300        47.609540        59.972080        -0.253992
1643124126.0000    310607.900000       -36.694100    310381.700000        82.976900    311483.000000      -156.739500       571.049900       156.813100       574.102700       -84.965590       556.442200        36.023560        59.967880         0.123423
1643124127.0000    310979.600000       -48.200290    310560.200000        71.379370    312160.800000      -168.323800       568.845200       145.198300       575.892500       -96.663950       557.083600        24.721750        59.966990         0.060774
1643124128.0000    310971.100000       -59.474300    310246.600000        60.169440    311714.300000      -179.612600       568.666300       134.084300       572.776200      -108.035200       558.129300        13.252250        59.967830        -0.426498
1643124129.0000    310986.000000       -70.955570    310682.800000        48.699110    311892.800000       168.980500       570.201200       122.576500       574.116200      -119.192700       556.503400         1.854011        59.968330         0.007353
1643124130.0000    311033.400000       -82.349870    310652.000000        37.321280    311831.800000       157.579900       569.180700       111.315100       572.405200      -130.582600       555.852400        -9.422461        59.971900         0.107252
1643124131.0000    310580.500000       -93.948520    310267.500000        25.721820    311389.900000       145.991500       570.203600        99.597110       573.529400      -142.285300       557.338600       -21.095300        59.963050        -0.249695
1643124132.0000    310588.800000      -106.215100    310357.900000        13.421200    311611.500000       133.720200       569.624500        87.139310       575.342000      -154.615700       556.691300       -33.362540        59.965010        -0.274800
1643124133.0000    310773.400000      -119.078800    310272.000000         0.568186    311612.700000       120.820500       570.616000        74.491080       575.553500      -167.475100       558.458100       -46.061870        59.963120         0.013584
1643124134.0000    310490.900000      -132.703000    310408.800000       -13.027170    311411.800000       107.276700       573.362100        60.639280       576.382700       179.022300       557.957000       -60.055290        59.960700        -0.057434
1643124135.0000    310861.000000      -146.937700    310561.400000       -27.310340    311880.800000        92.981000       572.316100        46.585940       578.017700       164.794300       559.490800       -73.952280        59.959810         0.151415
1643124136.0000    310894.400000      -161.356200    310673.800000       -41.742240    312029.100000        78.569110       572.124100        32.050730       578.793900       150.288200       559.652600       -88.449330        59.958110        -0.441403
1643124137.0000    310866.600000      -175.456100    310434.700000       -55.785720    311628.200000        64.464020       573.190600        18.080220       576.255200       136.120800       560.295300      -102.831800        59.961170         0.055201
1643124138.0000    311241.500000       171.116300    310792.000000       -69.244710    312136.400000        51.017150       571.111900         4.725717       576.115300       122.805400       558.737500      -116.018000        59.966510        -0.056506
1643124139.0000    310759.100000       158.340900    310466.800000       -81.989720    311594.400000        38.283220       572.948300        -8.326885       576.441300       109.859400       558.388100      -129.097100        59.968740         0.324119
1643124140.0000    310952.600000       145.763600    310549.400000       -94.570110    311749.300000        25.685260       571.939100       -20.814800       575.235200        97.255090       558.515500      -141.676800        59.966690         0.047000
1643124141.0000    310596.400000       133.744200    310416.300000      -106.617600    311635.800000        13.688170       570.674900       -33.098400       575.927700        85.187930       556.748000      -153.636100        59.964980        -0.416473
1643124142.0000    310990.700000       121.976800    310595.000000      -118.352300    311770.400000         1.901103       571.048700       -44.543860       574.914700        73.490920       558.241900      -165.381500        59.967000         0.038536
1643124143.0000    311186.500000       110.812500    310623.300000      -129.528900    311930.400000        -9.292350       569.955700       -55.494110       574.590600        62.428150       558.505900      -176.287300        59.968940        -0.061992
1643124144.0000    310990.500000       100.309300    310548.700000      -140.060100    311934.300000       -19.793290       569.752300       -66.158100       575.337400        51.852430       557.668500       173.168200        59.970890         0.065534
1643124145.0000    310904.600000        90.217450    310433.700000      -150.139800    311780.500000       -29.883800       571.799000       -76.388540       576.874600        41.638560       559.699100       162.925500        59.972580         0.272917
1643124146.0000    310808.200000        80.601320    310262.300000      -159.803000    311861.300000       -39.535720       571.610200       -86.144580       578.562900        31.904120       560.199300       153.263000        59.974840        -0.006209
1643124147.0000    311151.200000        71.012660    310620.500000      -169.367700    312099.800000       -49.108020       570.885500       -95.452670       577.191600        22.588700       559.450300       143.865300        59.973100         0.126830
1643124148.0000    310904.000000        61.625200    310435.400000      -178.810300    312154.000000       -58.514670       570.623000      -105.193700       579.135900        12.922380       559.336200       134.392400        59.974540        -0.299746
1643124149.0000    310866.100000        52.555740    310495.700000       172.178500    311885.400000       -67.536560       572.763200      -114.014200       578.812500         4.109342       560.449800       125.423100        59.976020         0.228747
1643124150.0000    311320.700000        44.097720    310780.900000       163.724400    312232.400000       -76.019890       572.119900      -122.283200       578.131800        -4.283601       561.116900       117.010500        59.980370         0.262475
1643124151.0000    311334.000000        36.499990    310713.300000       156.166200    312041.400000       -83.611920       571.598600      -129.821100       575.185000       -11.927590       559.863400       109.249500        59.980900         0.038804
1643124152.0000    311379.500000        29.535500    310928.100000       149.175500    312281.300000       -90.561390       570.077900      -136.734700       575.555500       -18.678600       558.342000       102.573100        59.981530        -0.082995
1643124153.0000    310936.600000        23.057230    310486.100000       142.757200    311576.800000       -97.012820       573.103700      -143.482400       575.968300       -25.440840       559.907500        95.639720        59.981830        -0.026636
1643124154.0000    310960.300000        17.223430    310677.500000       136.856100    311993.000000      -102.853700       572.207000      -149.466100       578.268900       -31.278390       559.321800        89.929710        59.980170        -0.261139
1643124155.0000    310986.300000        12.194120    310374.400000       131.821000    311884.300000      -107.934100       571.225300      -154.412200       576.063200       -36.419900       559.883100        84.972090        59.987940         0.044135
1643124156.0000    311182.000000         7.903107    310620.900000       127.558700    311971.100000      -112.206500       569.503700      -158.465000       574.532500       -40.447630       557.515600        80.810540        59.988630         0.222125
1643124157.0000    311321.300000         4.005850    310762.900000       123.647300    312179.900000      -116.109200       569.539200      -162.356600       574.671300       -44.328160       557.864100        76.889000        59.990830         0.369125
1643124158.0000    311200.800000         0.649187    310651.400000       120.297500    312033.500000      -119.463400       572.231400      -165.842100       577.284500       -47.865150       560.710900        73.444250        59.989830        -0.203665
1643124159.0000    311169.800000        -1.821127    310702.400000       117.855200    311913.300000      -121.903800       571.284500      -168.261700       575.223800       -50.270140       558.971100        70.903730        59.993740         0.105582
1643124160.0000    311272.000000        -3.531552    310734.700000       116.104000    312184.800000      -123.647400       571.434200      -170.048400       577.293800       -51.987150       559.381500        69.228840        59.996360        -0.168228
1643124161.0000    311047.500000        -4.500917    310484.000000       115.141200    311913.100000      -124.618600       571.286700      -171.118500       576.490200       -53.076720       559.209500        68.130690        59.997600        -0.069995
1643124162.0000    311126.200000        -5.051215    310736.300000       114.608400    311997.400000      -125.133100       571.449000      -171.560500       576.102200       -53.471520       558.457000        67.738750        59.998420        -0.105898
1643124163.0000    310715.800000        -5.121332    310294.900000       114.495800    311761.400000      -125.231400       571.320100      -171.812000       577.740800       -53.677460       559.043200        67.605930        60.000310        -0.097737
1643124164.0000    310975.800000        -5.125442    310558.900000       114.504600    311976.100000      -125.230600       571.331500      -171.719500       577.175000       -53.636930       559.135700        67.604790        59.999080        -0.040681
1643124165.0000    310874.200000        -5.141250    310344.500000       114.491300    311794.600000      -125.259900       572.013100      -171.725200       577.470000       -53.680480       559.802400        67.636220        59.996670         0.021933
1643124166.0000    310820.400000        -5.503220    310139.800000       114.142900    311609.000000      -125.636300       572.921100      -171.993200       577.605500       -54.072270       560.784800        67.261850        59.997190         0.152356
1643124167.0000    310649.800000        -6.498391    310418.300000       113.150400    311666.500000      -126.560500       573.797900      -173.250100       578.368000       -55.004850       559.248900        66.115940        59.996930        -0.166101
1643124168.0000    311079.400000        -7.697149    310750.200000       111.937900    312096.500000      -127.779900       570.904700      -174.162200       576.820600       -55.953220       558.105100        65.284030        59.996460        -0.107917
1643124169.0000    310996.500000        -9.636447    310636.200000       110.028800    311850.300000      -129.708600       571.529100      -175.855300       576.305400       -57.692740       558.484700        63.470780        59.996170         0.174398
1643124170.0000    310534.400000       -12.181920    310193.100000       107.456800    311516.900000      -132.263900       572.313800      -178.734400       576.244100       -60.625310       559.441300        60.598850        59.989820         0.152868
1643124171.0000    310224.100000       -15.428490    310161.500000       104.272400    311060.500000      -135.435400       573.526700       177.988700       576.298100       -63.798150       559.704300        57.332570        59.989750        -0.186620
1643124172.0000    310568.500000       -19.323490    310348.500000       100.336600    311525.200000      -139.377000       572.324500       174.281800       576.498900       -67.576050       559.358900        53.684290        59.986760        -0.162190
1643124173.0000    310563.700000       -24.139810    310250.300000        95.574440    311204.500000      -144.180300       573.460900       169.487300       575.070300       -72.454930       559.491900        48.639200        59.982790        -0.119069
1643124174.0000    310612.700000       -29.954840    310112.600000        89.695570    311456.900000      -150.055700       573.139800       163.592700       579.086300       -78.346530       560.861500        43.005740        59.981680         0.004970
1643124175.0000    310476.200000       -36.581070    310148.600000        83.063980    311423.700000      -156.659600       573.313000       156.793900       578.507400       -85.065250       560.310500        36.128400        59.977060        -0.150112
1643124176.0000    310823.200000       -44.045560    310300.900000        75.633780    311518.400000      -164.134600       573.200700       149.668800       577.592700       -92.417890       561.085700        28.863550        59.975290        -0.521169
1643124177.0000    310892.000000       -51.791360    310689.900000        67.815400    312083.700000      -171.869500       572.213700       141.755300       579.365000       -99.978920       559.321200        21.296180        59.978550        -0.370971
1643124178.0000    310817.100000       -59.773970    310217.800000        59.873540    311610.200000      -179.892400       573.563500       133.858200       579.029300      -108.161700       562.048000        13.136590        59.980960         0.380515
1643124179.0000    310873.200000       -68.576090    310507.200000        51.100110    311647.100000       171.357400       574.059900       125.041900       578.211900      -116.855500       560.576700         4.184504        59.976360         0.246428
