Terminal: UFAC-PMU_Rio_Branco_AC
Tensão base: 0.22 kV
SOC inicial: 1643124120
SOC final: 1643124179
Taxa: 1 fasores/s
Total de frames faltantes: - 

Tempo_(SOC)           VA_mod_(V)     VA_ang_(graus)     VB_mod_(V)     VB_ang_(graus)     VC_mod_(V)     VC_ang_(graus)     Frequência        Delta_Freq     Faltante
1643124120.0000       127.543000       -18.350770       124.783500      -138.961000       125.653900       100.386900        59.976930         0.029297
1643124121.0000       127.542100       -27.505280       124.808700      -148.110700       125.669600        91.223820        59.974560         0.046692
1643124122.0000       127.540500       -36.626240       124.799100      -157.235300       125.664200        82.105480        59.971450        -0.006638
1643124123.0000       127.531400       -46.777660       124.794200      -167.377500       125.683800        71.955930        59.971890         0.010986
1643124124.0000       127.508100       -56.914940       124.778500      -177.511400       125.662200        61.820620        59.970660        -0.011902
1643124125.0000       127.512800       -67.647460       124.759500       171.757000       125.660100        51.096600        59.970430         0.043945
1643124126.0000       127.519100       -78.800530       124.761900       160.595000       125.646800        39.941680        59.968910        -0.035248
1643124127.0000       127.524600       -90.547740       124.783600       148.847400       125.653700        28.185760        59.966720        -0.010757
1643124128.0000       127.519700      -101.578300       124.772300       137.825700       125.671400        17.162290        59.968080         0.013046
1643124129.0000       127.532500      -112.863300       124.779200       126.550600       125.690900         5.884851        59.967440        -0.025864
1643124130.0000       127.557700      -124.321700       124.808400       115.073000       125.687100        -5.584884        59.969510         0.001373
1643124131.0000       127.570300      -135.808800       124.803400       103.587100       125.686500       -17.063970        59.968320         0.008469
1643124132.0000       127.502200      -148.077300       124.752100        91.320590       125.628200       -29.340030        59.963810         0.005951
1643124133.0000       127.522400      -160.829300       124.778800        78.582980       125.682000       -42.085880        59.961560        -0.014191
1643124134.0000       127.512800      -174.464500       124.793900        64.937080       125.666600       -55.736720        59.963730         0.001144
1643124135.0000       127.515100       171.226500       124.783000        50.616970       125.640900       -70.044890        59.959470         0.067520
1643124136.0000       127.484700       156.613100       124.770300        36.029990       125.669000       -84.650930        59.962830         0.083771
1643124137.0000       127.506600       142.492600       124.791600        21.894960       125.659600       -98.779050        59.959450         0.023346
1643124138.0000       127.501500       129.291900       124.798000         8.701711       125.673000      -111.980900        59.963150         0.010757
1643124139.0000       127.523600       116.426000       124.796600        -4.164475       125.690000      -124.836900        59.968670         0.015106
1643124140.0000       127.508500       103.871400       124.780300       -16.734500       125.644400      -137.400600        59.965600         0.065231
1643124141.0000       127.450900        91.858920       124.756100       -28.748970       125.596300      -149.428000        59.964550        -0.026779
1643124142.0000       127.498700        80.083540       124.765100       -40.513590       125.646200      -161.181100        59.966160        -0.007782
1643124143.0000       127.517200        68.894880       124.794100       -51.702000       125.675800      -172.374400        59.970970        -0.053558
1643124144.0000       127.505600        58.263960       124.784800       -62.317090       125.688600       177.001300        59.971270         0.003662
1643124145.0000       127.486100        48.380090       124.755700       -72.213650       125.645800       167.115300        59.970530         0.027237
1643124146.0000       127.533200        38.646720       124.825100       -81.946500       125.703500       157.374300        59.976180         0.050812
1643124147.0000       127.513200        29.129080       124.794800       -91.468660       125.668100       147.858800        59.971290         0.021286
1643124148.0000       127.555800        19.562520       124.825400      -101.042500       125.692700       138.293700        59.973110         0.021744
1643124149.0000       127.533400        10.750080       124.815100      -109.839200       125.704200       129.481400        59.975090         0.012589
1643124150.0000       127.555100         2.508665       124.814800      -118.082200       125.709500       121.250400        59.977640        -0.043030
1643124151.0000       127.526600        -5.122908       124.810000      -125.696000       125.735100       113.616500        59.982870         0.019226
1643124152.0000       127.550100       -11.919170       124.841000      -132.505500       125.730400       106.811100        59.983180         0.072098
1643124153.0000       127.555900       -18.230100       124.820800      -138.814600       125.728600       100.510200        59.984820         0.014420
1643124154.0000       127.527000       -23.923140       124.790900      -144.516100       125.677700        94.813280        59.983020        -0.023117
1643124155.0000       127.483900       -28.767590       124.736400      -149.357800       125.636100        89.976530        59.984310        -0.026321
1643124156.0000       127.548100       -33.301640       124.802400      -153.893800       125.696200        85.439950        59.988340         0.005035
1643124157.0000       127.548200       -36.847890       124.803700      -157.438900       125.701100        81.892620        59.989910        -0.059509
1643124158.0000       127.554600       -40.679240       124.820400      -161.267000       125.718600        78.058840        59.992080        -0.071869
1643124159.0000       127.555400       -43.019780       124.831100      -163.606600       125.725800        75.716450        59.993820         0.055389
1643124160.0000       127.566600       -44.777720       124.814200      -165.380500       125.689400        73.960170        59.996370        -0.027466
1643124161.0000       127.572600       -45.674340       124.837700      -166.262200       125.735000        73.065510        59.997670        -0.086060
1643124162.0000       127.560200       -46.248680       124.851500      -166.836600       125.733700        72.481120        60.000300         0.105515
1643124163.0000       127.538600       -46.336090       124.815100      -166.913200       125.729100        72.404320        59.999790        -0.012360
1643124164.0000       127.477300       -46.305070       124.725700      -166.896700       125.623300        72.438420        59.997340        -0.055389
1643124165.0000       127.524500       -46.170750       124.811100      -166.741500       125.731500        72.568260        59.999020         0.029068
1643124166.0000       127.535300       -46.657300       124.819100      -167.240400       125.716800        72.077310        59.997830         0.007324
1643124167.0000       127.520600       -47.434810       124.809200      -168.012900       125.714500        71.299760        59.997410        -0.012817
1643124168.0000       127.542700       -48.849210       124.795700      -169.436200       125.696900        69.896550        59.996480        -0.001144
1643124169.0000       127.506900       -50.716670       124.792800      -171.296000       125.691600        68.020290        59.991210        -0.047379
1643124170.0000       127.537100       -53.261560       124.813300      -173.841100       125.719900        65.478740        59.993930         0.108490
1643124171.0000       127.490500       -56.410960       124.771500      -176.995300       125.671400        62.322990        59.990470        -0.047150
1643124172.0000       127.538600       -60.267560       124.789400       179.142600       125.688400        58.474580        59.988900        -0.098648
1643124173.0000       127.475600       -64.965250       124.738500       174.453900       125.652600        53.779610        59.986290        -0.017853
1643124174.0000       127.473800       -70.837710       124.745500       168.575500       125.640400        47.900030        59.984720         0.097275
1643124175.0000       127.512000       -77.537510       124.775600       161.887700       125.700100        41.208230        59.980020         0.005951
1643124176.0000       127.531400       -84.898280       124.791500       154.510300       125.685800        33.840480        59.976670        -0.025864
1643124177.0000       127.512500       -92.881480       124.778400       146.539400       125.690500        25.862310        59.977070         0.015106
1643124178.0000       127.517100      -100.611800       124.784600       138.803000       125.685400        18.129230        59.979310         0.030441
1643124179.0000       127.474000      -109.279400       124.766300       130.140400       125.666000         9.455201        59.972190        -0.085373
