Terminal: UFBA-PMU_Salvador_BA
Tensão base: 0.22 kV
SOC inicial: 1643124120
SOC final: 1643124179
Taxa: 1 fasores/s
Total de frames faltantes: - 

Tempo_(SOC)           VA_mod_(V)     VA_ang_(graus)     VB_mod_(V)     VB_ang_(graus)     VC_mod_(V)     VC_ang_(graus)     Frequência        Delta_Freq     Faltante
1643124120.0000       126.595200       -18.374060       125.963600      -138.975000       125.330500       101.648200        59.975560        -0.009384
1643124121.0000       126.562600       -27.352220       125.954200      -147.947400       125.320400        92.663700        59.974900         0.023575
1643124122.0000       126.531300       -36.823110       125.920000      -157.415600       125.293500        83.199090        59.972900         0.045319
1643124123.0000       126.522800       -46.788760       125.909500      -167.382700       125.281600        73.230890        59.970860        -0.047150
1643124124.0000       126.505400       -57.160390       125.886400      -177.756500       125.249400        62.862810        59.971160        -0.040741
1643124125.0000       126.499600       -67.810990       125.892600       171.597300       125.264800        52.206040        59.971240         0.019455
1643124126.0000       126.553600       -78.917630       125.932800       160.490500       125.312100        41.103040        59.969950         0.049667
1643124127.0000       126.532000       -90.472720       125.904800       148.930100       125.278600        29.551420        59.966070        -0.006866
1643124128.0000       126.620600      -101.900700       125.978700       137.509800       125.372800        18.132270        59.968760        -0.062027
1643124129.0000       126.574100      -113.060000       125.935400       126.352600       125.331900         6.973889        59.969970         0.018768
1643124130.0000       126.551000      -124.577700       125.915500       114.835400       125.311300        -4.544537        59.968720         0.024033
1643124131.0000       126.521600      -136.101300       125.882900       103.317300       125.286800       -16.061420        59.967880         0.032272
1643124132.0000       126.499700      -148.176100       125.857000        91.241690       125.258500       -28.136150        59.964410        -0.013275
1643124133.0000       126.454300      -161.306300       125.821000        78.114510       125.228900       -41.269040        59.959180        -0.139389
1643124134.0000       126.494300      -174.915000       125.866400        64.511190       125.283500       -54.877130        59.962780        -0.005264
1643124135.0000       126.529500       170.942400       125.880300        50.372620       125.312700       -69.010770        59.960360         0.015793
1643124136.0000       126.685400       156.352600       125.999200        35.771880       125.423100       -83.591320        59.959400         0.000687
1643124137.0000       126.701500       142.589800       126.042700        21.997530       125.434800       -97.367670        59.960620        -0.071411
1643124138.0000       126.658800       129.300800       125.975800         8.716349       125.393300      -110.646000        59.962940        -0.073929
1643124139.0000       126.712400       116.369300       126.029300        -4.215331       125.447100      -123.577400        59.966060         0.066834
1643124140.0000       126.658100       103.983400       125.978900       -16.600670       125.401300      -135.965600        59.965450         0.025406
1643124141.0000       126.671000        91.836580       125.994700       -28.759990       125.395600      -148.120600        59.968270         0.044403
1643124142.0000       126.601600        80.198620       125.948200       -40.397160       125.331800      -159.762500        59.965820        -0.055618
1643124143.0000       126.700200        69.025050       126.035900       -51.570840       125.430200      -170.934500        59.970300        -0.064545
1643124144.0000       126.680200        58.442990       126.037600       -62.143800       125.435400       178.483200        59.971820         0.040741
1643124145.0000       126.661100        48.525620       126.008200       -72.060200       125.410600       168.564400        59.972850         0.023117
1643124146.0000       126.667700        38.883010       126.007900       -81.704410       125.413600       158.928600        59.973310        -0.032272
1643124147.0000       126.668700        29.384900       126.002300       -91.200430       125.411700       149.434500        59.972510        -0.067062
1643124148.0000       126.672600        19.875290       125.991900      -100.709200       125.411500       139.930200        59.973810        -0.040970
1643124149.0000       126.704900        10.792710       126.029400      -109.789900       125.445100       130.844900        59.977210         0.070267
1643124150.0000       126.711800         2.192650       126.037600      -118.393000       125.449400       122.241200        59.978110         0.030441
1643124151.0000       126.680400        -5.524306       126.004400      -126.110400       125.416700       114.525800        59.978830         0.010986
1643124152.0000       126.667400       -12.361610       125.986500      -132.948300       125.395100       107.691100        59.980960        -0.058823
1643124153.0000       126.671600       -18.848280       126.006200      -139.434700       125.411300       101.199500        59.982750         0.010071
1643124154.0000       126.678300       -24.914980       126.019300      -145.499500       125.422700        95.134760        59.985480         0.038452
1643124155.0000       126.687900       -29.903580       126.027600      -150.486700       125.435700        90.141700        59.987050         0.001831
1643124156.0000       126.683300       -34.201460       126.033700      -154.792400       125.429500        85.840360        59.988290        -0.061111
1643124157.0000       126.715600       -37.875120       126.047300      -158.465600       125.442000        82.168900        59.988790        -0.137787
1643124158.0000       126.724900       -41.480830       126.063500      -162.077100       125.450800        78.557000        59.991970         0.026550
1643124159.0000       126.767900       -44.003720       126.106200      -164.602000       125.491500        76.035070        59.995920         0.063171
1643124160.0000       126.719700       -45.590610       126.038700      -166.186700       125.435900        74.456640        59.996970         0.000000
1643124161.0000       126.768200       -46.707410       126.094100      -167.301600       125.494600        73.335030        59.997350        -0.027008
1643124162.0000       126.738600       -47.027370       126.085600      -167.609000       125.492700        73.017460        59.998570        -0.040054
1643124163.0000       126.773600       -47.029400       126.129900      -167.617200       125.518400        73.011340        60.002540         0.002518
1643124164.0000       126.763000       -47.056640       126.126300      -167.642000       125.518800        72.979510        60.000010         0.069809
1643124165.0000       126.758500       -47.304630       126.124700      -167.892600       125.513600        72.730030        59.999110         0.033188
1643124166.0000       126.743400       -47.399390       126.101200      -167.985900       125.502100        72.637380        59.998760        -0.068207
1643124167.0000       126.723200       -48.259850       126.093300      -168.851000       125.485000        71.772060        59.997420         0.024033
1643124168.0000       126.752400       -49.939540       126.123200      -170.530000       125.507700        70.090810        59.995630         0.013046
1643124169.0000       126.757900       -51.709940       126.126700      -172.291000       125.529500        68.327730        59.995610         0.102997
1643124170.0000       126.743900       -54.380040       126.110500      -174.967400       125.498500        65.653410        59.991040        -0.059052
1643124171.0000       126.691100       -57.442560       126.052200      -178.024500       125.462000        62.592680        59.988330        -0.080566
1643124172.0000       126.718700       -61.244110       126.085000       178.170900       125.484900        58.794880        59.989640        -0.005722
1643124173.0000       126.743200       -66.110600       126.115500       173.302900       125.505700        53.920930        59.986800         0.107117
1643124174.0000       126.739800       -71.693850       126.096500       167.715200       125.487000        48.344200        59.983660         0.017166
1643124175.0000       126.727700       -78.472900       126.095100       160.936700       125.484600        41.559060        59.979110         0.005035
1643124176.0000       126.745700       -85.948470       126.107900       153.460400       125.497200        34.086270        59.978420        -0.028610
1643124177.0000       126.775100       -93.952230       126.147600       145.452700       125.516500        26.075850        59.976860        -0.072098
1643124178.0000       126.776200      -101.827100       126.114800       137.571200       125.489800        18.211950        59.980170         0.108032
1643124179.0000       126.733800      -110.380400       126.076900       129.020300       125.455000         9.654817        59.973870         0.002747
