Terminal: UFES-PMU_Vitoria_ES
Tensão base: 0.22 kV
SOC inicial: 1643124120
SOC final: 1643124179
Taxa: 1 fasores/s
Total de frames faltantes: - 

Tempo_(SOC)           VA_mod_(V)     VA_ang_(graus)     VB_mod_(V)     VB_ang_(graus)     VC_mod_(V)     VC_ang_(graus)     Frequência        Delta_Freq     Faltante
1643124120.0000       129.420700       -89.443490       128.750300       150.983100       130.044800        30.872090        59.974000        -0.042801
1643124121.0000       129.350900       -98.504590       128.699500       141.918200       129.978900        21.796200        59.971130        -0.092468
1643124122.0000       129.293500      -108.045700       128.636100       132.393500       129.956500        12.266620        59.973430         0.033417
1643124123.0000       129.027700      -118.282200       128.373500       122.144100       129.665000         2.018234        59.969710        -0.019913
1643124124.0000       129.098200      -128.625400       128.424900       111.793900       129.704600        -8.312749        59.969800        -0.036392
1643124125.0000       129.105100      -139.260700       128.440700       101.172300       129.741100       -18.939280        59.968380        -0.036163
1643124126.0000       129.183900      -150.313000       128.543700        90.106010       129.811900       -30.002890        59.967480         0.012817
1643124127.0000       129.186800      -161.970700       128.517800        78.460850       129.817600       -41.645710        59.968230         0.041199
1643124128.0000       129.214800      -173.242700       128.573700        67.183620       129.853000       -52.936840        59.970380         0.031128
1643124129.0000       129.283900       175.470200       128.680600        55.887060       129.973600       -64.173030        59.971810        -0.051498
1643124130.0000       129.233200       164.204800       128.657600        44.617300       129.957800       -75.455780        59.967660         0.000916
1643124131.0000       129.229100       152.711300       128.651700        33.138600       129.969000       -86.937390        59.965540        -0.063858
1643124132.0000       129.157900       140.509200       128.595700        20.929100       129.901000       -99.144580        59.966320         0.069809
1643124133.0000       129.189300       127.407800       128.628800         7.829516       129.940900      -112.244700        59.964440         0.050583
1643124134.0000       129.216800       113.820600       128.649300        -5.748791       129.954400      -125.829400        59.962650        -0.029984
1643124135.0000       129.223900        99.598790       128.673000       -19.970390       129.976100      -140.055100        59.959870         0.025635
1643124136.0000       129.250200        85.103230       128.699100       -34.475790       129.980000      -154.554500        59.960930        -0.021286
1643124137.0000       129.233500        71.112770       128.676800       -48.480450       129.947300      -168.555600        59.962810         0.051041
1643124138.0000       129.207900        57.747300       128.676500       -61.846710       129.932800       178.070200        59.962430        -0.039597
1643124139.0000       129.001600        44.852090       128.486600       -74.745460       129.730600       165.175600        59.967650         0.053787
1643124140.0000       129.026300        32.096120       128.480000       -87.509920       129.748800       152.422200        59.964760        -0.021973
1643124141.0000       129.056300        20.077270       128.534000       -99.526750       129.770300       140.393000        59.967170         0.050812
1643124142.0000       129.055900         8.285113       128.521800      -111.309700       129.780500       128.614300        59.966060        -0.055618
1643124143.0000       129.014100        -2.885350       128.495000      -122.478400       129.755800       117.439900        59.969470        -0.035019
1643124144.0000       129.047100       -13.471490       128.502600      -133.064200       129.779700       106.865000        59.972870         0.021286
1643124145.0000       129.169100       -23.275680       128.627100      -142.881400       129.871100        97.048970        59.974850        -0.096359
1643124146.0000       129.130300       -32.986150       128.570600      -152.594000       129.831900        87.331890        59.975040         0.012131
1643124147.0000       128.998200       -42.500690       128.464500      -162.108500       129.707900        77.811680        59.973010        -0.023117
1643124148.0000       129.108300       -51.946150       128.547800      -171.554400       129.800400        68.388850        59.974380         0.040283
1643124149.0000       129.127600       -60.880430       128.486400       179.415200       129.936400        59.389690        59.976800         0.034790
1643124150.0000       129.215000       -69.392470       128.414400       170.983400       129.887900        50.857860        59.979520         0.070953
1643124151.0000       129.017200       -77.162350       128.257000       163.224300       129.732700        43.084810        59.979550        -0.022659
1643124152.0000       128.828100       -84.167240       128.116000       156.068200       129.729400        36.077710        59.981310        -0.007782
1643124153.0000       128.827000       -90.706720       128.134600       149.530000       129.758500        29.543440        59.982120        -0.050354
1643124154.0000       128.962000       -96.519360       128.264700       143.716300       129.876100        23.726700        59.985600         0.015335
1643124155.0000       128.873100      -101.508400       128.182400       138.730900       129.783800        18.736720        59.985290         0.015335
1643124156.0000       128.860600      -105.960600       128.157900       134.272000       129.762300        14.292000        59.988720        -0.008698
1643124157.0000       128.920000      -109.770500       128.218000       130.468000       129.833800        10.489710        59.989170         0.059052
1643124158.0000       129.199500      -112.727500       128.488300       127.510100       130.094600         7.532859        59.992810        -0.001144
1643124159.0000       129.073300      -115.370500       128.389100       124.874600       130.001400         4.876704        59.995110         0.037537
1643124160.0000       129.036300      -117.091100       128.350300       123.137000       129.929900         3.154640        59.997100         0.051727
1643124161.0000       129.039200      -118.074400       128.356400       122.147700       129.949500         2.172730        59.999140         0.063858
1643124162.0000       129.036000      -118.598800       128.338100       121.619000       129.906000         1.643376        59.999130        -0.013962
1643124163.0000       129.009400      -118.509600       128.317700       121.719200       129.895100         1.736776        59.997810        -0.038223
1643124164.0000       129.065600      -118.542700       128.386700       121.674500       129.942000         1.693351        59.999890         0.030899
1643124165.0000       129.077700      -118.581100       128.384900       121.637000       129.946500         1.660014        59.998480        -0.005951
1643124166.0000       129.086200      -118.766900       128.411100       121.442200       129.957400         1.463930        59.997520        -0.033417
1643124167.0000       129.079100      -119.488200       128.488100       120.727300       129.985300         0.706760        59.995490        -0.178986
1643124168.0000       128.951600      -120.963000       128.397500       119.252300       129.895700        -0.777818        59.997900         0.077362
1643124169.0000       129.129600      -122.800400       128.530300       117.427800       130.056700        -2.611643        59.994270         0.016251
1643124170.0000       129.087500      -125.346700       128.521900       114.883600       130.032100        -5.168488        59.989860        -0.088577
1643124171.0000       129.013300      -128.377800       128.444700       111.869400       129.979500        -8.190638        59.989010        -0.051041
1643124172.0000       129.034800      -132.328500       128.431500       107.903700       129.958100       -12.135040        59.987720        -0.063400
1643124173.0000       129.005500      -137.089000       128.408800       103.162400       129.965800       -16.881760        59.985290         0.029526
1643124174.0000       128.946500      -142.818900       128.374100        97.424870       129.907200       -22.628790        59.982910        -0.006866
1643124175.0000       128.995900      -149.533600       128.385400        90.713440       129.950500       -29.331280        59.983550         0.132294
1643124176.0000       129.039600      -156.643400       128.449600        83.589360       129.970000       -36.456940        59.981080         0.078278
1643124177.0000       128.971400      -164.680200       128.256100        75.584540       129.908300       -44.429840        59.978920         0.062943
1643124178.0000       128.957700      -172.605900       128.244100        67.650900       129.874900       -52.354540        59.977840         0.018539
1643124179.0000       128.889400       178.645400       127.922500        58.761460       129.951700       -61.184030        59.973510        -0.051956
