Terminal: UFJF-PMU_Juiz_de_Fora_MG
Tensão base: 0.22 kV
SOC inicial: 1643124120
SOC final: 1643124179
Taxa: 1 fasores/s
Total de frames faltantes: - 

Tempo_(SOC)           VA_mod_(V)     VA_ang_(graus)     VB_mod_(V)     VB_ang_(graus)     VC_mod_(V)     VC_ang_(graus)     Frequência        Delta_Freq     Faltante
1643124120.0000       126.537600       -69.881280       126.948100       170.223500       128.052200        50.275200        59.978130        -0.184479
1643124121.0000       126.586500       -79.016400       127.054900       161.079100       128.118500        41.113710        59.975420         0.146713
1643124122.0000       126.552300       -88.355000       126.987100       151.817900       128.209000        31.823210        59.975830         0.067291
1643124123.0000       126.617200       -98.530940       127.011200       141.545800       128.075300        21.613940        59.971390        -0.236664
1643124124.0000       126.632300      -108.826800       126.899200       131.234900       128.068200        11.326970        59.974470        -0.085373
1643124125.0000       126.056600      -119.569100       126.687500       120.586000       127.862400         0.483596        59.967150         0.135956
1643124126.0000       126.659000      -130.374100       127.010000       109.700600       128.172500       -10.249310        59.973220         0.301209
1643124127.0000       126.583000      -142.032800       127.060600        98.012760       128.102200       -21.975390        59.971810         0.189514
1643124128.0000       126.580200      -153.305900       126.964500        86.803420       128.174300       -33.177570        59.974400         0.168228
1643124129.0000       126.697600      -164.937500       126.621600        75.143660       128.009000       -44.644120        59.972050         0.177841
1643124130.0000       126.457800      -176.201400       127.006400        63.821020       127.966500       -56.187470        59.969080         0.053101
1643124131.0000       126.129800       172.092800       126.624300        52.169870       127.718300       -67.844020        59.961750         0.316315
1643124132.0000       126.481700       160.059100       126.873900        40.125680       128.002900       -79.828320        59.963920        -0.032043
1643124133.0000       126.498700       147.215300       127.010800        27.273680       128.075800       -92.731210        59.956870        -0.033646
1643124134.0000       126.675200       133.596300       126.957500        13.633790       128.088000      -106.282400        59.958130        -0.113983
1643124135.0000       126.647100       119.215000       126.857000        -0.742468       128.029700      -120.625800        59.948670        -0.309448
1643124136.0000       126.722500       104.929700       127.084300       -15.007740       128.223500      -134.959000        59.953650        -0.249710
1643124137.0000       126.705800        90.945950       126.873800       -29.034960       128.022600      -148.888300        59.967990         0.263672
1643124138.0000       126.498300        77.461810       126.880500       -42.482620       127.992300      -162.440900        59.957570        -0.035019
1643124139.0000       126.590500        64.773770       127.171600       -55.176550       128.165600      -175.202400        59.970080         0.174408
1643124140.0000       126.479600        51.961460       126.722800       -67.905130       128.027500       172.163600        59.963120         0.121994
1643124141.0000       126.798300        40.181740       127.158700       -79.896090       128.007400       160.233800        59.967010        -0.127487
1643124142.0000       126.541800        28.077430       126.976800       -91.863940       128.058300       148.160700        59.972160         0.468063
1643124143.0000       126.535200        17.271640       126.961400      -102.714700       127.949000       137.337000        59.967350        -0.098190
1643124144.0000       126.735600         6.702169       127.036900      -113.300800       128.055800       126.808100        59.973440        -0.146713
1643124145.0000       126.783600        -3.388458       127.009600      -123.425200       128.001500       116.737900        59.978790         0.156326
1643124146.0000       126.571900       -13.167080       126.933100      -133.086500       128.073400       106.955500        59.978680         0.404663
1643124147.0000       126.605700       -22.642600       126.983300      -142.569700       128.104000        97.478340        59.974490         0.069580
1643124148.0000       126.904100       -32.102110       127.139800      -152.004300       128.378100        88.083630        59.980070         0.294342
1643124149.0000       126.750200       -40.830260       127.031700      -160.783500       128.163500        79.308710        59.986220         0.032730
1643124150.0000       126.823500       -49.387070       127.099400      -169.284400       128.326200        70.792910        59.980990         0.281754
1643124151.0000       126.782000       -56.962710       127.147600      -176.927400       128.092300        63.133070        59.980380        -0.082626
1643124152.0000       126.575300       -64.134470       127.075100       175.895600       127.943100        55.900880        59.975300        -0.098648
1643124153.0000       126.679700       -70.442400       126.981200       169.663600       128.092400        49.705520        59.981870        -0.242386
1643124154.0000       126.762200       -76.078720       127.178600       163.905200       128.011300        43.965030        59.973670        -0.594177
1643124155.0000       126.737100       -81.575010       127.168400       158.524800       128.203900        38.521450        59.993370         0.988998
1643124156.0000       126.811900       -85.745900       127.238100       154.307300       128.189800        34.329910        59.990730        -0.041656
1643124157.0000       126.957500       -89.225760       127.206900       150.791900       128.180000        30.896800        59.985310        -0.445404
1643124158.0000       126.897000       -92.885680       127.180700       147.169200       128.203100        27.244440        59.994840        -0.358658
1643124159.0000       126.687800       -95.475630       127.296300       144.535600       128.076900        24.504210        59.998940         0.339661
1643124160.0000       126.712100       -97.132860       126.897400       142.889800       127.898600        23.021850        59.987540        -1.208725
1643124161.0000       126.940000       -98.030020       127.252300       142.001300       128.215700        22.079490        59.995740         0.027008
1643124162.0000       126.635200       -98.686560       127.097600       141.347200       127.991500        21.357880        59.995480        -0.246964
1643124163.0000       126.879400       -98.419400       127.356400       141.590700       128.192000        21.608800        59.996630         0.059052
1643124164.0000       126.716300       -98.678180       127.135000       141.343400       128.033100        21.377450        59.997870         0.269165
1643124165.0000       126.810400       -98.700740       127.139200       141.315000       128.076700        21.389190        59.991260        -0.093613
1643124166.0000       126.773500       -99.125190       127.059000       140.904000       128.031900        20.997540        60.001920         0.775223
1643124167.0000       127.284600       -99.765370       127.673400       140.266900       128.590100        20.325760        59.996640         0.128403
1643124168.0000       126.946500      -101.221500       127.477400       138.792400       128.288900        18.801840        59.997300        -0.042114
1643124169.0000       126.461500      -103.294300       126.968100       136.795900       127.918500        16.776000        59.986350        -0.215378
1643124170.0000       127.096500      -105.840200       127.416000       134.179900       128.329600        14.274610        59.991000         0.031586
1643124171.0000       126.900700      -108.931500       127.425100       131.065100       128.193500        11.085760        59.992770         0.208511
1643124172.0000       126.849400      -112.939800       127.173400       127.100500       128.138000         7.179018        59.989120        -0.111923
1643124173.0000       127.240500      -117.641900       127.438900       122.329800       128.324800         2.493303        59.999640         0.293884
1643124174.0000       127.197600      -123.224300       127.513600       116.768500       128.387600        -3.132056        59.983940        -0.233917
1643124175.0000       127.311500      -129.829200       127.519100       110.086400       128.294300        -9.730578        59.974070        -0.251083
1643124176.0000       126.912900      -137.500000       127.411600       102.386900       127.984700       -17.528090        59.982720         0.121994
1643124177.0000       127.183800      -145.496900       127.362000        94.474930       128.270600       -25.357560        59.982220         0.338516
1643124178.0000       126.960000      -153.153500       127.383800        86.852480       128.223800       -33.091740        59.986160         0.327988
1643124179.0000       127.149000      -162.110900       127.359300        77.940130       128.394500       -41.945200        59.971600         0.002747
