Terminal: UFMT-PMU_Cuiaba_MT
Tensão base: 0.22 kV
SOC inicial: 1643124120
SOC final: 1643124179
Taxa: 1 fasores/s
Total de frames faltantes: - 

Tempo_(SOC)           VA_mod_(V)     VA_ang_(graus)     VB_mod_(V)     VB_ang_(graus)     VC_mod_(V)     VC_ang_(graus)     Frequência        Delta_Freq     Faltante
1643124120.0000       128.673400       -10.149140       129.356900      -130.252300       128.649600       109.660000        59.975400        -0.015564
1643124121.0000       128.646900       -19.323780       129.334900      -139.426600       128.620400       100.481800        59.975830         0.018539
1643124122.0000       128.654200       -28.665150       129.333200      -148.763800       128.636600        91.148610        59.972880         0.012360
1643124123.0000       128.667400       -38.738400       129.342800      -158.843700       128.633200        81.069370        59.971980         0.016937
1643124124.0000       128.655400       -48.917050       129.309100      -169.025600       128.603700        70.901730        59.971440         0.018997
1643124125.0000       128.649400       -59.603220       129.294800      -179.714000       128.584100        60.212460        59.968170        -0.002975
1643124126.0000       128.692000       -70.738940       129.310500       169.161900       128.636500        49.093130        59.968340         0.013275
1643124127.0000       128.685400       -82.461270       129.334200       157.442800       128.651500        37.359870        59.966790        -0.055161
1643124128.0000       128.688600       -93.664690       129.370100       146.239300       128.673900        26.149140        59.969710         0.013275
1643124129.0000       128.646300      -105.047000       129.325300       134.857700       128.628600        14.765200        59.965640        -0.020599
1643124130.0000       128.654200      -116.410600       129.338300       123.498900       128.650000         3.403516        59.966530        -0.075073
1643124131.0000       128.648700      -127.918900       129.335800       111.980200       128.626300        -8.114026        59.967700        -0.013046
1643124132.0000       128.650200      -140.230500       129.344100        99.657930       128.610700       -20.431150        59.964030        -0.036621
1643124133.0000       128.629200      -153.172500       129.324900        86.740550       128.634200       -33.359410        59.963050        -0.005722
1643124134.0000       128.635800      -166.768500       129.287900        73.157520       128.646400       -46.934130        59.962000         0.016251
1643124135.0000       128.632400       178.923700       129.285200        58.851850       128.653600       -61.240700        59.958800        -0.024948
1643124136.0000       128.675600       164.426800       129.344800        44.337080       128.668800       -75.752170        59.960960         0.040054
1643124137.0000       128.660600       150.413400       129.352900        30.323980       128.646100       -89.773740        59.961610         0.002289
1643124138.0000       128.669800       137.082900       129.342400        16.990580       128.651400      -103.103200        59.963410         0.042572
1643124139.0000       128.644900       124.268000       129.337700         4.169723       128.627700      -115.928700        59.966240         0.057678
1643124140.0000       128.644400       111.697000       129.324400        -8.399132       128.631500      -128.493100        59.965160        -0.019684
1643124141.0000       128.609000        99.674380       129.299900       -20.420410       128.598800      -140.516700        59.966900        -0.032959
1643124142.0000       128.597900        87.911510       129.303000       -32.183000       128.586100      -152.272900        59.967150         0.004578
1643124143.0000       128.548600        76.691570       129.352500       -43.390000       128.561000      -163.453300        59.968350        -0.037079
1643124144.0000       128.576300        66.122870       129.353500       -53.957920       128.578400      -174.012000        59.970410        -0.068207
1643124145.0000       128.557400        56.119880       129.360300       -63.956510       128.578300       175.977700        59.972860         0.024261
1643124146.0000       128.553600        46.469740       129.384700       -73.608490       128.586400       166.323300        59.972510        -0.030670
1643124147.0000       128.548200        36.943420       129.368400       -83.138500       128.572900       156.791900        59.972890         0.007095
1643124148.0000       128.556400        27.396800       129.366600       -92.684720       128.579900       147.251600        59.975540         0.048065
1643124149.0000       128.580600        18.370900       129.392000      -101.708600       128.603500       138.227800        59.975780         0.013275
1643124150.0000       128.577400         9.897957       129.368200      -110.179600       128.596800       129.758600        59.978500         0.042801
1643124151.0000       128.573400         2.396785       129.374800      -117.680300       128.596600       122.259800        59.980190         0.017853
1643124152.0000       128.529800        -4.513455       129.350800      -124.593300       128.551900       115.335600        59.982200        -0.018997
1643124153.0000       128.571600       -10.921340       129.390700      -131.007900       128.584200       108.925600        59.982560         0.005264
1643124154.0000       128.634000       -16.914680       129.434400      -136.992200       128.653000       102.942400        59.987070         0.045776
1643124155.0000       128.615100       -21.921250       129.439600      -142.002000       128.639500        97.927190        59.986530        -0.004578
1643124156.0000       128.607500       -26.240610       129.423000      -146.324700       128.618600        93.610120        59.988270        -0.040970
1643124157.0000       128.537400       -29.974420       129.380600      -150.044100       128.591800        89.872560        59.985910        -0.080795
1643124158.0000       128.606500       -33.525960       129.459300      -153.609000       128.642800        86.313930        59.992420        -0.008698
1643124159.0000       128.573300       -35.915740       129.417400      -155.989800       128.622700        83.930080        59.993510        -0.027237
1643124160.0000       128.569300       -37.708430       129.409000      -157.781200       128.615000        82.136910        59.995580         0.021744
1643124161.0000       128.529900       -38.653930       129.380900      -158.728900       128.575700        81.188320        59.997030        -0.045319
1643124162.0000       128.545500       -39.136090       129.387600      -159.213900       128.585100        80.706220        59.998050        -0.037994
1643124163.0000       128.535500       -39.127860       129.376300      -159.198200       128.579500        80.718770        60.001500         0.029068
1643124164.0000       128.550500       -39.224240       129.402900      -159.299100       128.599000        80.614410        60.000350         0.032501
1643124165.0000       128.556200       -39.274480       129.410900      -159.349200       128.605100        80.565120        59.998660         0.006180
1643124166.0000       128.564700       -39.577480       129.417800      -159.660200       128.601400        80.261050        59.998660        -0.025406
1643124167.0000       128.563000       -40.493210       129.426100      -160.569000       128.626100        79.345050        59.995640        -0.024719
1643124168.0000       128.578200       -41.863920       129.431400      -161.940900       128.627000        77.975010        59.995340        -0.054016
1643124169.0000       128.536600       -43.757320       129.391300      -163.833300       128.582600        76.080700        59.992510        -0.035477
1643124170.0000       128.564500       -46.334630       129.417100      -166.416300       128.605900        73.503530        59.992600        -0.032501
1643124171.0000       128.534100       -49.480960       129.401900      -169.563000       128.586900        70.351510        59.988800        -0.037766
1643124172.0000       128.549700       -53.387880       129.401000      -173.471900       128.581600        66.448520        59.987930         0.015564
1643124173.0000       128.540800       -58.123920       129.387500      -178.206800       128.581500        61.715030        59.985810        -0.015335
1643124174.0000       128.505200       -63.912290       129.365700       176.001900       128.544200        55.921260        59.983540         0.005035
1643124175.0000       128.514900       -70.635990       129.393100       169.284500       128.574000        49.195510        59.981440         0.019226
1643124176.0000       128.573800       -78.086150       129.429200       161.817600       128.592600        41.741970        59.979530         0.025635
1643124177.0000       128.589300       -85.989210       129.467100       153.929400       128.649700        33.845350        59.979180         0.028610
1643124178.0000       128.550700       -93.845760       129.417800       146.064800       128.596900        25.985200        59.976680        -0.023117
1643124179.0000       128.547700      -102.494100       129.313400       137.411200       128.591500        17.286500        59.973670        -0.042114
