Terminal: UFPA-PMU_Belem_PA
Tensão base: 0.22 kV
SOC inicial: 1643124120
SOC final: 1643124179
Taxa: 1 fasores/s
Total de frames faltantes: - 

Tempo_(SOC)           VA_mod_(V)     VA_ang_(graus)     VB_mod_(V)     VB_ang_(graus)     VC_mod_(V)     VC_ang_(graus)     Frequência        Delta_Freq     Faltante
1643124120.0000       132.341900       -26.336550       134.256200      -146.212900       133.681300        93.228580        59.975190        -0.040741
1643124121.0000       132.326400       -35.334750       134.262300      -155.209900       133.679000        84.218120        59.974760         0.007782
1643124122.0000       132.304300       -44.725430       134.213800      -164.609800       133.640100        74.831560        59.973650        -0.003433
1643124123.0000       132.293400       -54.687320       134.204500      -174.572400       133.624600        64.864180        59.972000        -0.012360
1643124124.0000       132.285400       -65.205990       134.212000       174.916900       133.636600        54.352810        59.972170         0.017624
1643124125.0000       132.266600       -75.651410       134.196700       164.472300       133.617100        43.907630        59.969250        -0.013275
1643124126.0000       132.272200       -86.803860       134.158600       153.311300       133.578600        32.765890        59.968280        -0.003891
1643124127.0000       132.360100       -98.381190       134.184400       141.722800       133.684800        21.196990        59.967560         0.012131
1643124128.0000       132.392600      -110.034700       134.285000       130.086000       133.727700         9.531687        59.968460        -0.017624
1643124129.0000       132.373200      -120.965500       134.234100       119.138500       133.661000        -1.401526        59.970070         0.017624
1643124130.0000       132.308500      -132.438600       134.184100       107.668700       133.608800       -12.880350        59.967080        -0.000916
1643124131.0000       132.303700      -143.892800       134.160600        96.217830       133.596800       -24.324840        59.967890        -0.030670
1643124132.0000       132.263700      -155.752200       134.143900        84.362020       133.576800       -36.188310        59.965850         0.002060
1643124133.0000       132.244600      -168.950900       134.146200        71.173020       133.579200       -49.383780        59.963850         0.066376
1643124134.0000       132.276100       177.213400       134.193500        57.337640       133.621600       -63.224700        59.961220         0.001831
1643124135.0000       132.328700       163.251000       134.214700        43.371150       133.656900       -77.180920        59.960820         0.024490
1643124136.0000       132.328300       148.477600       134.217900        28.589640       133.649400       -91.964140        59.960910         0.039825
1643124137.0000       132.365600       134.589200       134.279600        14.689940       133.676300      -105.866400        59.963680         0.011673
1643124138.0000       132.366100       121.541100       134.232600         1.648867       133.668000      -118.894000        59.964010         0.036621
1643124139.0000       132.357600       108.631700       134.251900       -11.263570       133.656500      -131.813900        59.965250         0.008926
1643124140.0000       132.316700        96.238560       134.175200       -23.629970       133.652600      -144.177400        59.966690         0.043716
1643124141.0000       132.342100        84.095250       134.205800       -35.773490       133.678500      -156.319600        59.967090        -0.025177
1643124142.0000       132.338300        72.539210       134.211600       -47.336980       133.675000      -167.887300        59.968600         0.018768
1643124143.0000       132.347000        61.182210       134.255800       -58.707700       133.670500      -179.265300        59.969270        -0.023575
1643124144.0000       132.345700        50.583300       134.244800       -69.302730       133.677500       170.138000        59.971010        -0.036392
1643124145.0000       132.333700        40.831760       134.253100       -79.062950       133.655800       160.376500        59.972800        -0.035477
1643124146.0000       132.338200        31.096400       134.276300       -88.792080       133.675700       150.638600        59.972840        -0.024490
1643124147.0000       132.350200        21.703550       134.286100       -98.178000       133.699800       141.254100        59.975590         0.007782
1643124148.0000       132.316400        12.134520       134.263500      -107.745900       133.670600       131.684700        59.972840        -0.000916
1643124149.0000       132.368300         2.859407       134.291700      -117.025800       133.707400       122.413800        59.976280        -0.010986
1643124150.0000       132.413400        -5.624613       134.349000      -125.516800       133.746800       113.916900        59.977080        -0.018311
1643124151.0000       132.395900       -13.382570       134.331000      -133.266400       133.745900       106.160100        59.980450        -0.020599
1643124152.0000       132.356500       -20.029990       134.295000      -139.915100       133.707000        99.510650        59.980590        -0.054245
1643124153.0000       132.395400       -26.612710       134.334800      -146.499300       133.739000        92.929390        59.982250        -0.018311
1643124154.0000       132.375700       -32.702250       134.317200      -152.572400       133.748000        86.849500        59.982050        -0.044403
1643124155.0000       132.421700       -37.749640       134.353500      -157.637800       133.752700        81.801490        59.986640        -0.021973
1643124156.0000       132.365000       -42.013160       134.317000      -161.898100       133.710700        77.530080        59.987810        -0.037079
1643124157.0000       132.381300       -45.678280       134.334800      -165.566700       133.729100        73.854770        59.990120        -0.012360
1643124158.0000       132.301100       -49.294710       134.256700      -169.203800       133.635100        70.234660        59.990060        -0.015564
1643124159.0000       132.358700       -51.982150       134.301900      -171.879700       133.709900        67.556760        59.995430        -0.004349
1643124160.0000       132.352300       -53.459600       134.249000      -173.336700       133.714300        66.112730        59.996000        -0.065689
1643124161.0000       132.391200       -54.566360       134.318900      -174.457800       133.727900        64.989480        59.997370         0.004349
1643124162.0000       132.422000       -54.968850       134.352200      -174.862000       133.764400        64.588430        60.000710         0.007553
1643124163.0000       132.387900       -54.961560       134.346000      -174.846800       133.759900        64.587250        60.001670         0.020828
1643124164.0000       132.319700       -54.893420       134.295600      -174.776000       133.714800        64.650040        59.998130        -0.079880
1643124165.0000       132.371000       -55.353330       134.271900      -175.253200       133.698400        64.201450        59.999280         0.030441
1643124166.0000       132.332600       -55.392960       134.237000      -175.302900       133.638100        64.157010        59.999820        -0.002975
1643124167.0000       132.346900       -56.170160       134.229300      -176.067800       133.655700        63.394250        59.996140         0.043945
1643124168.0000       132.373900       -58.069190       134.260800      -177.965800       133.683800        61.500240        59.993970        -0.031586
1643124169.0000       132.411200       -59.911850       134.300800      -179.815900       133.711700        59.656640        59.994750        -0.046234
1643124170.0000       132.355200       -62.459650       134.180400       177.654300       133.663900        57.137220        59.991990         0.020142
1643124171.0000       132.378200       -65.561800       134.224000       174.527600       133.651100        54.012080        59.989320        -0.065002
1643124172.0000       132.349200       -69.386560       134.180100       170.726100       133.651600        50.198540        59.987820         0.029984
1643124173.0000       132.294600       -74.244000       134.151900       165.858000       133.597700        45.330010        59.984490        -0.028381
1643124174.0000       132.317300       -79.780230       134.181900       160.311400       133.599200        39.785630        59.982480        -0.014648
1643124175.0000       132.300300       -86.618540       134.172500       153.471300       133.579800        32.950210        59.978880        -0.006638
1643124176.0000       132.273700       -94.166850       134.217900       145.928500       133.594600        25.378360        59.980530         0.063858
1643124177.0000       132.359900      -102.178700       134.264300       137.901500       133.633600        17.372020        59.977540        -0.030899
1643124178.0000       132.367700      -110.067900       134.248500       130.014600       133.639700         9.489053        59.979030         0.024490
1643124179.0000       132.321200      -118.369900       134.194400       121.713800       133.593700         1.188302        59.974960         0.008698
