Terminal: UFRR-PMU_Boa_Vista_RR
Tensão base: 0.22 kV
SOC inicial: 1643124120
SOC final: 1643124179
Taxa: 1 fasores/s
Total de frames faltantes: - 

Tempo_(SOC)           VA_mod_(V)     VA_ang_(graus)     VB_mod_(V)     VB_ang_(graus)     VC_mod_(V)     VC_ang_(graus)     Frequência        Delta_Freq     Faltante
1643124120.0000       122.532300        89.765840       123.685600       -30.142100       123.728000      -150.503200        60.074140         0.034103
1643124121.0000       122.529900       116.376900       123.659600        -3.516499       123.744500      -123.881700        60.077380         0.059280
1643124122.0000       122.583900       144.008100       123.720800        24.114540       123.798600       -96.248480        60.075970         0.087891
1643124123.0000       122.538000       169.662800       123.669900        49.771850       123.765600       -70.592920        60.074660         0.143967
1643124124.0000       122.570600      -164.334700       123.706200        75.769870       123.776700       -44.594720        60.073640         0.030899
1643124125.0000       122.575300      -137.080800       123.715800       103.034500       123.804600       -17.334630        60.082380         0.031128
1643124126.0000       122.595100      -108.270700       123.712800       131.842100       123.810400        11.479540        60.083240         0.038452
1643124127.0000       122.643000       -79.636570       123.768400       160.479300       123.860100        40.113130        60.076960         0.052643
1643124128.0000       122.541500       -52.326560       123.681400      -172.217500       123.750800        67.416200        60.077470         0.008698
1643124129.0000       122.581300       -24.469130       123.704000      -144.355100       123.799400        95.285560        60.079860         0.054474
1643124130.0000       122.567500         3.515521       123.713200      -116.375300       123.781700       123.258100        60.077790        -0.007095
1643124131.0000       122.565300        32.211940       123.720100       -87.683150       123.784700       151.946300        60.081110        -0.042343
1643124132.0000       122.577600        60.598440       123.718700       -59.294140       123.795200      -179.661900        60.077890         0.003662
1643124133.0000       122.582300        90.526930       123.702700       -29.369600       123.819200      -149.744000        60.084280        -0.035706
1643124134.0000       122.542800       119.712200       123.663900        -0.178412       123.787800      -120.558100        60.080320        -0.061340
1643124135.0000       122.552800       148.073800       123.694200        28.186580       123.808600       -92.201340        60.078290        -0.063858
1643124136.0000       122.538300       175.492200       123.665800        55.599510       123.768600       -64.779970        60.076610        -0.032501
1643124137.0000       122.562000      -156.338700       123.681500        83.771230       123.789400       -36.605370        60.076480        -0.085602
1643124138.0000       122.536600      -128.339500       123.679600       111.775600       123.787300        -8.613877        60.076420        -0.003204
1643124139.0000       122.564900       -99.070340       123.700100       141.043600       123.813100        20.660320        60.083760        -0.054932
1643124140.0000       122.529900       -69.942130       123.668200       170.162200       123.778900        49.782260        60.079100        -0.005951
1643124141.0000       122.563000       -40.676210       123.694400      -160.570000       123.799600        79.050580        60.080960        -0.080566
1643124142.0000       122.548200       -11.422520       123.676800      -131.310300       123.787700       108.306800        60.082640        -0.050812
1643124143.0000       122.536300        18.318650       123.659100      -101.567500       123.780100       138.052300        60.077200        -0.098419
1643124144.0000       122.558100        46.632050       123.693200       -73.259670       123.804700       166.360700        60.078460        -0.093384
1643124145.0000       122.548200        75.177330       123.689600       -44.705770       123.799300      -165.091100        60.080300        -0.065002
1643124146.0000       122.554400       104.369000       123.691000       -15.520680       123.795400      -135.906100        60.079540         0.031357
1643124147.0000       122.574900       132.887100       123.716400        12.996530       123.822200      -107.390300        60.078800        -0.114899
1643124148.0000       122.551900       163.020500       123.684400        43.132510       123.808600       -77.250840        60.081300        -0.089722
1643124149.0000       122.567700      -168.037800       123.688700        72.072890       123.811100       -48.304780        60.080520         0.003433
1643124150.0000       122.598500      -138.553600       123.716300       101.551700       123.831600       -18.824360        60.080670        -0.080338
1643124151.0000       122.544600      -108.710300       123.678600       131.402400       123.788800        11.019140        60.080200        -0.042801
1643124152.0000       122.586200       -80.309460       123.719500       159.799800       123.821200        39.418190        60.073140        -0.039597
1643124153.0000       122.566900       -53.048260       123.704500      -172.939500       123.818600        66.681070        60.074280         0.003891
1643124154.0000       122.577400       -26.633870       123.717900      -146.525400       123.821300        93.093540        60.069070        -0.053787
1643124155.0000       122.550100        -1.845445       123.680600      -121.727800       123.801300       117.890600        60.069000         0.045319
1643124156.0000       122.583700        23.554220       123.715400       -96.335720       123.834400       143.285200        60.070060         0.007324
1643124157.0000       122.566100        48.162120       123.687100       -71.731550       123.797900       167.894500        60.066230        -0.007553
1643124158.0000       122.564800        71.388370       123.682300       -48.496700       123.806800      -168.874500        60.064210        -0.014648
1643124159.0000       122.568000        94.663940       123.698700       -25.224110       123.810600      -145.604800        60.062920        -0.031586
1643124160.0000       122.506100       115.957600       123.635900        -3.930769       123.746100      -124.309500        60.054570         0.010986
1643124161.0000       122.565900       136.002500       123.688600        16.109980       123.796500      -104.264200        60.051350        -0.012360
1643124162.0000       122.525500       156.190600       123.662300        36.291250       123.748200       -84.083400        60.059270         0.079193
1643124163.0000       122.553400       176.549800       123.694700        56.653720       123.785100       -63.723290        60.051630         0.036163
1643124164.0000       122.561200      -164.445100       123.682100        75.660270       123.791100       -44.714030        60.054200         0.060196
1643124165.0000       122.575800      -144.762300       123.684600        95.347410       123.801600       -25.022600        60.053280         0.024948
1643124166.0000       122.608900      -127.010900       123.706100       113.105500       123.839700        -7.267257        60.048340         0.048065
1643124167.0000       122.571400      -110.408600       123.682800       129.706700       123.800100         9.332613        60.046940         0.052872
1643124168.0000       122.600200       -94.834180       123.692000       145.280100       123.828000        24.913790        60.039230         0.028839
1643124169.0000       122.566400       -80.615080       123.696100       159.496200       123.800400        39.117650        60.047730         0.155869
1643124170.0000       122.575600       -64.275720       123.690000       175.830900       123.801600        55.459520        60.047120         0.076218
1643124171.0000       122.546200       -48.568140       123.650500      -168.459700       123.767300        71.169650        60.037920         0.044174
1643124172.0000       122.559300       -36.111100       123.684000      -155.997100       123.803500        83.625220        60.035160         0.082855
1643124173.0000       122.529600       -22.821480       123.618400      -142.713900       123.748600        96.921150        60.041850         0.093842
1643124174.0000       122.587100        -8.699864       123.700700      -128.588200       123.814300       111.038700        60.039100         0.049438
1643124175.0000       122.604200         4.376253       123.707100      -115.513200       123.826000       124.117300        60.038350         0.101166
1643124176.0000       122.648300        17.299530       123.746600      -102.587900       123.859500       137.041700        60.036920         0.021057
1643124177.0000       122.634900        29.688380       123.739100       -90.200930       123.846700       149.427500        60.036840         0.094070
1643124178.0000       122.629500        42.776860       123.728300       -77.105210       123.855800       162.522000        60.033720         0.033188
1643124179.0000       122.638300        54.223980       123.724600       -65.664700       123.854800       173.974900        60.033400         0.114212
