Terminal: UFSC-PMU_Florianopolis_SC
Tensão base: 0.38 kV
SOC inicial: 1643124120
SOC final: 1643124179
Taxa: 1 fasores/s
Total de frames faltantes: - 

Tempo_(SOC)           VA_mod_(V)     VA_ang_(graus)     VB_mod_(V)     VB_ang_(graus)     VC_mod_(V)     VC_ang_(graus)     Frequência        Delta_Freq     Faltante
1643124120.0000       216.686200      -119.935700       219.696600       119.767700       214.605500        -1.160002        59.973610        -0.056992
1643124121.0000       216.633100      -129.058500       219.717400       110.656900       214.575300       -10.289670        59.975330        -0.008011
1643124122.0000       216.656000      -138.497100       219.687500       101.219800       214.531000       -19.730060        59.974660         0.090408
1643124123.0000       216.612000      -148.409500       219.710200        91.299930       214.572300       -29.645980        59.973180         0.099106
1643124124.0000       216.593800      -158.590300       219.637500        81.129670       214.490600       -39.811870        59.970170        -0.023346
1643124125.0000       216.538500      -169.377100       219.534200        70.330740       214.364900       -50.589500        59.971530         0.111466
1643124126.0000       216.554700       179.428400       219.644400        59.118370       214.407300       -61.823180        59.969550         0.001144
1643124127.0000       216.504600       167.776900       219.604700        47.503960       214.411300       -73.475170        59.967320        -0.018311
1643124128.0000       216.524200       156.619100       219.643200        36.320460       214.376800       -84.623880        59.969520         0.027466
1643124129.0000       216.571300       145.044000       219.655200        24.721720       214.794700       -96.116620        59.968890         0.066834
1643124130.0000       216.567500       133.844700       219.739500        13.529670       214.935500      -107.328400        59.971710         0.099106
1643124131.0000       216.447400       122.119700       219.529200         1.797151       214.686900      -119.041800        59.967030         0.066147
1643124132.0000       216.448400       109.825100       219.567800       -10.508440       214.709700      -131.328000        59.963250        -0.074158
1643124133.0000       216.423200        96.925020       219.610400       -23.421820       214.712600      -144.261400        59.962730        -0.031357
1643124134.0000       216.457000        83.399760       219.545600       -36.936420       214.733200      -157.768600        59.958620        -0.096588
1643124135.0000       216.495000        69.139610       219.605900       -51.178830       214.743800      -172.027000        59.958940        -0.032959
1643124136.0000       216.476400        54.666720       219.681200       -65.650030       214.831100       173.485500        59.960470         0.021744
1643124137.0000       216.416400        40.594090       219.622200       -79.729840       214.808700       159.412800        59.961840        -0.005493
1643124138.0000       216.570300        27.200010       219.764300       -93.113010       214.927200       146.014100        59.965900        -0.032730
1643124139.0000       216.411400        14.393350       219.537700      -105.936600       214.714800       133.218200        59.963430         0.058594
1643124140.0000       216.504300         1.859326       219.676200      -118.451700       214.840400       120.682100        59.966260         0.060883
1643124141.0000       216.444300       -10.241410       219.591400      -130.548000       214.777500       108.594300        59.967710         0.041885
1643124142.0000       216.497700       -21.976080       219.614800      -142.311200       214.791600        96.846630        59.966720         0.005264
1643124143.0000       216.470200       -33.109470       219.704600      -153.432400       214.815300        85.690220        59.971140         0.054474
1643124144.0000       216.558600       -43.550240       219.746900      -163.867000       214.954200        75.267160        59.970700        -0.050354
1643124145.0000       216.485700       -53.765760       219.699700      -174.058000       214.874200        65.060520        59.971490        -0.045547
1643124146.0000       216.428300       -63.434290       219.647000       176.262800       214.823200        55.381910        59.974440         0.047836
1643124147.0000       216.525200       -72.968920       219.696700       166.710600       214.875700        45.853840        59.973280        -0.044861
1643124148.0000       216.519600       -82.349780       219.667000       157.334400       214.854600        36.480350        59.972770        -0.049210
1643124149.0000       216.483600       -91.407970       219.647300       148.269900       214.844500        27.415660        59.975660         0.040741
1643124150.0000       216.493200       -99.988040       219.695100       139.697700       214.774000        18.825170        59.978410         0.105972
1643124151.0000       216.474700      -107.509600       219.726100       132.170300       214.823300        11.287840        59.980460         0.018539
1643124152.0000       216.564600      -114.417400       219.793100       125.256600       214.901600         4.383044        59.982440        -0.004578
1643124153.0000       216.546400      -120.880400       219.783700       118.786300       214.849300        -2.076602        59.984990         0.079880
1643124154.0000       216.402000      -126.749800       219.604600       112.932600       214.765000        -7.933171        59.984100         0.036850
1643124155.0000       216.541600      -131.852000       219.727200       107.838200       214.886900       -13.022980        59.987290        -0.008240
1643124156.0000       216.487500      -135.924900       219.768300       103.755200       214.866400       -17.115670        59.987830        -0.037308
1643124157.0000       216.533400      -139.885100       219.762600        99.782770       214.896000       -21.088070        59.991140         0.050583
1643124158.0000       216.487100      -143.353600       219.745600        96.333740       214.852900       -24.540880        59.991240        -0.014420
1643124159.0000       216.395400      -145.779700       219.655600        93.901310       214.838200       -26.973230        59.994260         0.016708
1643124160.0000       216.468400      -147.583900       219.689900        92.107970       214.848800       -28.753870        59.996580         0.003662
1643124161.0000       216.422300      -148.488000       219.690600        91.204960       214.826400       -29.670630        59.998220        -0.011215
1643124162.0000       216.381800      -149.091500       219.656800        90.588320       214.772700       -30.271030        59.997690        -0.087891
1643124163.0000       216.354000      -149.239400       219.585300        90.483060       214.737200       -30.400990        60.000670        -0.006866
1643124164.0000       216.400700      -149.172900       219.629300        90.512920       214.739800       -30.352550        59.998020        -0.093842
1643124165.0000       216.379100      -149.163700       219.643100        90.520290       214.765000       -30.363610        59.997550        -0.016251
1643124166.0000       216.305400      -149.622400       219.581500        90.083240       214.743000       -30.803440        59.996070        -0.051727
1643124167.0000       216.268200      -150.587600       219.560000        89.085530       214.609100       -31.795970        59.996770        -0.007553
1643124168.0000       216.295200      -151.677700       219.632300        87.974610       214.628700       -32.888580        59.993740        -0.027466
1643124169.0000       216.170900      -153.733100       219.547700        85.967470       214.594300       -34.937310        59.993750         0.000916
1643124170.0000       216.196800      -156.204200       219.509700        83.492200       214.637700       -37.384200        59.988980        -0.011902
1643124171.0000       216.283900      -159.442800       219.591000        80.242040       214.658600       -40.639760        59.990250        -0.033646
1643124172.0000       216.183700      -163.437000       219.477400        76.256420       214.651700       -44.615900        59.986580         0.048065
1643124173.0000       216.231700      -168.160300       219.561400        71.539300       214.592400       -49.356440        59.986000        -0.034790
1643124174.0000       216.113100      -174.149800       219.387400        65.557190       214.548000       -55.320740        59.982670         0.049438
1643124175.0000       216.168000       179.295900       219.482400        58.998870       214.697800       -61.873560        59.981580         0.046005
1643124176.0000       216.215600       171.812800       219.411900        51.531670       214.577500       -69.345630        59.978520         0.064316
1643124177.0000       216.171000       164.069400       219.402800        43.759890       214.568000       -77.117100        59.977920        -0.018997
1643124178.0000       216.151800       156.030700       219.393000        35.731800       214.516200       -85.156540        59.975770         0.019913
1643124179.0000       216.009900       147.250300       219.284500        26.929460       214.402700       -93.943870        59.973460         0.014877
