Terminal: UNIFEI-PMU_Itajuba_MG
Tensão base: 0.22 kV
SOC inicial: 1643124120
SOC final: 1643124179
Taxa: 1 fasores/s
Total de frames faltantes: - 

Tempo_(SOC)           VA_mod_(V)     VA_ang_(graus)     VB_mod_(V)     VB_ang_(graus)     VC_mod_(V)     VC_ang_(graus)     Frequência        Delta_Freq     Faltante
1643124120.0000       124.891100      -101.000000       124.968700       138.987400       124.892400        19.204620        59.972550        -0.042801
1643124121.0000       124.720300      -110.118000       124.903700       129.909400       124.852000        10.060990        59.973320        -0.069351
1643124122.0000       124.805900      -119.620300       124.812700       120.394400       124.823300         0.627414        59.974160        -0.036850
1643124123.0000       124.860000      -129.638600       124.985800       110.365300       124.918300        -9.442829        59.972320        -0.027008
1643124124.0000       124.898700      -139.818800       124.984500       100.193900       124.955400       -19.605300        59.971740         0.021286
1643124125.0000       124.918300      -150.495700       125.001100        89.493350       124.929200       -30.292930        59.971120         0.051270
1643124126.0000       124.762000      -161.651600       124.927900        78.328600       124.795900       -41.486290        59.967790        -0.009613
1643124127.0000       124.921400      -173.248600       124.969200        66.740230       124.915800       -53.034010        59.967740        -0.042801
1643124128.0000       124.858200       175.507300       124.938700        55.530180       124.940600       -64.273720        59.969100        -0.030212
1643124129.0000       124.843800       164.044200       124.997500        44.038010       124.899500       -75.783810        59.968780         0.096359
1643124130.0000       124.824400       152.652200       125.012800        32.645920       124.891200       -87.196230        59.971080         0.152206
1643124131.0000       124.683100       141.066500       124.863800        21.059020       124.753900       -98.774410        59.963560        -0.128632
1643124132.0000       124.618800       128.773300       124.828800         8.771383       124.711100      -111.078000        59.964610        -0.063400
1643124133.0000       124.677500       115.867400       124.842500        -4.125189       124.763200      -123.961100        59.962900        -0.049667
1643124134.0000       124.667400       102.320200       124.905600       -17.713620       124.714100      -137.556400        59.961250         0.015793
1643124135.0000       124.747700        88.020320       124.923800       -31.999950       124.795000      -151.824500        59.959610         0.075073
1643124136.0000       124.842400        73.633650       125.003900       -46.409270       124.832700      -166.220300        59.959340        -0.056305
1643124137.0000       124.699200        59.539080       124.921900       -60.469190       124.793000       179.680800        59.960520        -0.011444
1643124138.0000       124.837600        46.115240       125.019800       -73.892750       124.902200       166.274700        59.965240         0.076218
1643124139.0000       124.703600        33.335660       124.913500       -86.670040       124.787100       153.484900        59.967850         0.173721
1643124140.0000       124.712300        20.749190       124.918800       -99.231460       124.844700       140.913800        59.966090         0.068893
1643124141.0000       124.736900         8.766691       124.931300      -111.256100       124.783600       128.914500        59.966530        -0.029068
1643124142.0000       124.749400        -3.032284       124.945300      -123.033300       124.839400       117.125500        59.967770        -0.006180
1643124143.0000       124.793100       -14.205820       124.973700      -134.197900       124.892700       105.961900        59.967930        -0.076447
1643124144.0000       124.806900       -24.726750       124.934000      -144.740800       124.836800        95.452340        59.971550         0.008240
1643124145.0000       124.751500       -34.820940       124.862500      -154.806100       124.829200        85.377420        59.971230        -0.007095
1643124146.0000       124.796800       -44.467800       124.848000      -164.464800       124.816800        75.750250        59.973840         0.046234
1643124147.0000       124.863700       -54.037230       124.947600      -174.028100       124.909300        66.168490        59.973130        -0.013733
1643124148.0000       124.878800       -63.450520       124.913700       176.538300       124.867300        56.762370        59.974350        -0.057907
1643124149.0000       124.761100       -72.518460       124.880900       167.477700       124.812200        47.670130        59.975860         0.022202
1643124150.0000       124.898100       -80.962380       125.027800       159.047500       124.972400        39.226680        59.978660         0.067749
1643124151.0000       124.816200       -88.554310       124.992000       151.470500       124.948600        31.620360        59.981210        -0.004349
1643124152.0000       124.869200       -95.511230       125.025200       144.501800       124.965700        24.667660        59.980990        -0.042114
1643124153.0000       124.702400      -101.953500       124.921100       138.070100       124.851200        18.206960        59.981610        -0.015106
1643124154.0000       124.820400      -107.811600       124.979300       132.179800       124.870700        12.357220        59.982080        -0.177841
1643124155.0000       124.808100      -112.863000       124.908500       127.146500       124.863500         7.336563        59.988620         0.100021
1643124156.0000       124.804800      -117.126600       124.969000       122.888700       124.905600         3.049869        59.984940        -0.130692
1643124157.0000       124.807100      -121.024900       124.944800       118.990700       124.893600        -0.836081        59.990690         0.049438
1643124158.0000       124.874100      -124.363100       125.026500       115.645800       124.955200        -4.181615        59.991950        -0.072784
1643124159.0000       124.859500      -126.811700       125.035100       113.189900       124.943400        -6.648207        59.994290         0.034332
1643124160.0000       124.909000      -128.544900       125.044600       111.455100       124.964500        -8.363693        59.996690        -0.002518
1643124161.0000       124.840200      -129.520900       124.981600       110.486500       124.907200        -9.340424        59.997120         0.002518
1643124162.0000       124.884700      -130.002600       125.085500       110.003100       124.980100        -9.844469        59.999610        -0.030441
1643124163.0000       124.776400      -130.130100       124.931500       109.875200       124.845800        -9.950015        60.000480         0.034561
1643124164.0000       124.850200      -130.107100       125.032800       109.908100       124.954300        -9.936623        59.999240        -0.075531
1643124165.0000       124.810700      -130.151900       124.983400       109.866200       124.912400        -9.977003        59.997420        -0.025864
1643124166.0000       124.740300      -130.522200       124.937200       109.523100       124.913000       -10.343170        59.996600         0.032272
1643124167.0000       124.749500      -131.490100       124.986400       108.507700       124.854000       -11.349020        59.998680         0.061798
1643124168.0000       124.887500      -132.677000       125.116400       107.328500       124.995600       -12.532730        59.997060         0.012360
1643124169.0000       124.786500      -134.642700       125.047200       105.373700       124.938400       -14.500960        59.995120         0.138474
1643124170.0000       124.724400      -137.163000       124.979000       102.835400       124.843700       -17.027640        59.990640        -0.005951
1643124171.0000       124.605500      -140.370500       124.941800        99.605350       124.720200       -20.280570        59.990000        -0.023346
1643124172.0000       124.724300      -144.271200       124.993500        95.709880       124.812800       -24.153260        59.989400         0.054932
1643124173.0000       124.629600      -149.072600       124.959100        90.939630       124.806400       -28.961990        59.983540        -0.086288
1643124174.0000       124.698600      -154.919500       124.947900        85.107500       124.861600       -34.770650        59.982330         0.006409
1643124175.0000       124.704500      -161.546900       124.961200        78.452080       124.827700       -41.413170        59.976980        -0.130692
1643124176.0000       124.722300      -169.017000       124.990400        71.012470       124.902800       -48.873690        59.978310        -0.059052
1643124177.0000       124.851200      -176.791100       125.065800        63.201690       124.943000       -56.641780        59.979100         0.013046
1643124178.0000       124.730000       175.227800       124.956900        55.258180       124.892500       -64.610270        59.980030         0.159531
1643124179.0000       124.738500       166.449700       124.991200        46.464420       124.887500       -73.408710        59.974680         0.036392
