Terminal: UTFPR-PMU_Curitiba_PR
Tensão base: 0.22 kV
SOC inicial: 1643124120
SOC final: 1643124179
Taxa: 1 fasores/s
Total de frames faltantes: - 

Tempo_(SOC)           VA_mod_(V)     VA_ang_(graus)     VB_mod_(V)     VB_ang_(graus)     VC_mod_(V)     VC_ang_(graus)     Frequência        Delta_Freq     Faltante
1643124120.0000       129.998200      -134.554400       130.614500       105.259000       129.666400       -14.502070        59.972770        -0.086975
1643124121.0000       130.030500      -143.639200       130.704500        96.223370       129.819800       -23.592160        59.975670        -0.030899
1643124122.0000       130.059200      -153.082600       130.724500        86.779950       129.861300       -33.022210        59.973950         0.036850
1643124123.0000       130.136300      -162.971300       130.802200        76.895210       129.955800       -42.918240        59.974050         0.165710
1643124124.0000       130.237800      -173.108100       130.835300        66.735260       130.025500       -53.033570        59.971120        -0.035934
1643124125.0000       130.107300       176.163500       130.731200        55.935270       129.815200       -63.799480        59.971980         0.132065
1643124126.0000       130.128000       164.953200       130.772900        44.737150       129.853700       -75.019390        59.969880         0.013504
1643124127.0000       130.159100       153.367800       130.737600        33.226610       130.045500       -86.527540        59.966480        -0.084457
1643124128.0000       130.186900       142.205200       130.801500        22.005200       129.958600       -97.736950        59.970900         0.097046
1643124129.0000       130.187600       130.661100       130.837600        10.438590       129.930600      -109.300700        59.969280         0.160675
1643124130.0000       130.293300       119.331800       130.922100        -0.809331       130.112600      -120.591600        59.975850         0.303726
1643124131.0000       130.040300       107.662600       130.691000       -12.541670       129.789500      -132.297100        59.967480         0.062256
1643124132.0000       130.063100        95.380550       130.664700       -24.857180       129.753400      -144.577000        59.960170        -0.157929
1643124133.0000       129.971700        82.433520       130.704100       -37.747780       129.802700      -157.550200        59.960360        -0.140305
1643124134.0000       130.063100        68.923710       130.656100       -51.252920       129.764600      -171.008500        59.954740        -0.199356
1643124135.0000       130.138200        54.639270       130.740500       -65.527820       129.894100       174.706100        59.957110        -0.071640
1643124136.0000       130.111500        40.133600       130.717700       -79.992200       129.902800       160.210500        59.959250        -0.016937
1643124137.0000       130.052900        26.027090       130.594000       -94.124720       129.785100       146.124100        59.960190        -0.111923
1643124138.0000       130.202500        12.651350       130.799100      -107.463900       130.002200       132.742500        59.966210        -0.053101
1643124139.0000       130.091800        -0.096612       130.723900      -120.282300       129.795900       119.944500        59.965150         0.102081
1643124140.0000       130.171100       -12.671050       130.842700      -132.806700       129.990900       107.398300        59.966200         0.085602
1643124141.0000       129.988800       -24.795550       130.580300      -144.956700       129.742400        95.288190        59.965530         0.062027
1643124142.0000       129.996800       -36.536830       130.643000      -156.730600       129.686900        83.497530        59.965700         0.013733
1643124143.0000       130.095500       -47.698490       130.802200      -167.838200       129.887100        72.342920        59.971660         0.123596
1643124144.0000       130.163800       -58.127220       130.830600      -178.264700       129.956000        61.931630        59.969210        -0.075531
1643124145.0000       130.049900       -68.324860       130.695900       171.561000       129.892900        51.751110        59.972060        -0.060425
1643124146.0000       130.008300       -78.031080       130.660400       161.858500       129.799500        42.043370        59.975710         0.128861
1643124147.0000       130.048400       -87.572670       130.696800       152.277000       129.825800        32.484890        59.972600        -0.028610
1643124148.0000       130.018900       -96.951250       130.642800       142.879600       129.786100        23.105950        59.971430        -0.104828
1643124149.0000       130.010900      -106.024800       130.637000       133.811600       129.739600        14.029180        59.974300        -0.002518
1643124150.0000       130.046900      -114.592100       130.671200       125.271300       129.762800         5.493033        59.977500         0.161820
1643124151.0000       130.109200      -122.040600       130.782700       117.825500       129.932600        -1.983883        59.981750         0.080566
1643124152.0000       130.202000      -128.965300       130.847800       110.896500       130.022300        -8.897319        59.984360         0.089264
1643124153.0000       130.192800      -135.417100       130.865100       104.437100       129.984900       -15.365370        59.985920         0.170517
1643124154.0000       130.004900      -141.349300       130.625000        98.471870       129.730200       -21.290920        59.984510        -0.021744
1643124155.0000       130.166600      -146.397900       130.810300        93.452900       129.946000       -26.332640        59.984540        -0.082397
1643124156.0000       130.153200      -150.499500       130.843400        89.383660       129.993000       -30.442300        59.988320         0.000229
1643124157.0000       130.182400      -154.436900       130.848100        85.413620       130.001400       -34.382700        59.992720         0.105515
1643124158.0000       130.139500      -157.876100       130.804000        81.988430       129.939000       -37.818580        59.991500        -0.040283
1643124159.0000       129.848700      -160.365500       130.485200        79.540140       129.707900       -40.274490        59.994440        -0.011444
1643124160.0000       130.077700      -162.074900       130.742400        77.779510       129.847600       -42.020660        59.998210         0.027924
1643124161.0000       130.058700      -162.986800       130.719000        76.866320       129.852600       -42.932260        59.999060         0.021744
1643124162.0000       129.989600      -163.553100       130.674700        76.292900       129.727900       -43.506150        59.997620        -0.194092
1643124163.0000       129.985400      -163.643100       130.585900        76.192630       129.726000       -43.557820        59.999360        -0.008698
1643124164.0000       130.070000      -163.542100       130.773300        76.276300       129.865600       -43.512150        59.997810        -0.087433
1643124165.0000       130.066500      -163.609100       130.747600        76.259880       129.900500       -43.569190        59.995890        -0.040512
1643124166.0000       130.039500      -164.094200       130.640500        75.785130       129.882700       -43.998970        59.996200        -0.100250
1643124167.0000       130.022500      -165.017900       130.766200        74.815910       129.844800       -45.002300        59.995980        -0.013504
1643124168.0000       129.976000      -166.136900       130.784400        73.693950       129.782100       -46.149200        59.995470        -0.059052
1643124169.0000       129.906800      -168.206400       130.608400        71.677070       129.762400       -48.149330        59.991930        -0.021286
1643124170.0000       130.065000      -170.644600       130.693000        69.205430       129.851200       -50.578530        59.990210         0.040741
1643124171.0000       130.049500      -173.876200       130.751300        65.971430       129.806800       -53.837130        59.990150        -0.014648
1643124172.0000       130.046700      -177.853000       130.663700        61.989560       129.787300       -57.786620        59.988290         0.186081
1643124173.0000       129.928200       177.392400       130.575300        57.229510       129.673700       -62.558550        59.986000        -0.063858
1643124174.0000       129.973700       171.474200       130.615600        51.303760       129.707300       -68.469590        59.983920         0.046234
1643124175.0000       130.055400       164.939200       130.750000        44.802120       129.889900       -75.005550        59.981860         0.066605
1643124176.0000       129.993500       157.404300       130.648200        37.287530       129.827500       -82.516450        59.980430         0.134583
1643124177.0000       130.055000       149.634000       130.691000        29.486190       129.825500       -90.305020        59.978120         0.075989
1643124178.0000       129.875100       141.577100       130.550400        21.395660       129.611400       -98.379260        59.977380         0.092468
1643124179.0000       129.901800       132.802400       130.611200        12.644970       129.695600      -107.169300        59.976590         0.065002
